; 构件内力数据
; 工况名称 数据数量
; 内力分量，按构件局部坐标系，拉负压正
; Time(s)		F2(kN)		F3(kN)		F1(kN)		M2(kN.m)	M3(kN.m)	M1(kN.m)	
*CASE CASE_1 N=1773
0.000		-1.784829	5.013149	993.171631	-8.327203	-3.066717	0.048593	
0.010		-1.879727	5.440284	993.590210	-8.979035	-3.252045	0.052481	
0.020		-1.610564	5.077047	993.259521	-8.724091	-2.997882	0.054919	
0.030		-1.900823	5.068370	993.426758	-8.495399	-3.185760	0.041670	
0.040		-1.661899	5.326827	992.185974	-8.807229	-2.779578	0.048355	
0.050		-1.752943	5.355896	989.803223	-9.174094	-2.848372	0.071731	
0.060		-2.047516	4.711706	989.613464	-8.344316	-3.382540	0.072697	
0.070		-1.846637	4.710936	989.090149	-7.953444	-3.413461	0.066551	
0.080		-1.408655	5.273251	985.838501	-8.611832	-2.807918	0.074103	
0.090		-1.338089	5.305143	983.217529	-9.017630	-2.218931	0.085621	
0.100		-1.421528	4.723685	984.556213	-8.206814	-1.989694	0.085563	
0.110		-1.497478	4.462146	987.971008	-7.423862	-2.118632	0.080286	
0.120		-1.604596	5.420935	989.928894	-8.601835	-2.277895	0.084001	
0.130		-1.558976	5.928505	993.067383	-9.712082	-2.233082	0.094691	
0.140		-1.598374	6.145961	996.038147	-10.275501	-2.340091	0.092362	
0.150		-1.644756	5.876295	995.387634	-10.228418	-2.539554	0.065181	
0.160		-1.710686	5.544727	991.258728	-9.930632	-2.722994	0.046124	
0.170		-1.464797	5.265193	987.630493	-9.583911	-2.303847	0.045472	
0.180		-0.804687	5.616125	985.543274	-10.134471	-1.182589	0.067159	
0.190		-0.922240	5.052464	986.312988	-9.766558	-0.789270	0.089300	
0.200		-1.398218	3.740313	986.966858	-7.847372	-1.106375	0.081079	
0.210		-1.539901	3.704305	985.359253	-6.735061	-1.412883	0.082089	
0.220		-1.530104	5.387912	983.189331	-8.589745	-1.689321	0.110704	
0.230		-2.010605	6.259893	982.771851	-10.256954	-2.732416	0.128514	
0.240		-2.558366	5.615364	983.235535	-9.686235	-4.023697	0.087881	
0.250		-2.464860	5.717641	985.349670	-9.730544	-4.473312	0.043760	
0.260		-2.181909	6.182502	990.148438	-10.345758	-4.425859	0.030133	
0.270		-2.019115	5.683621	994.731079	-9.965780	-4.232278	0.028157	
0.280		-0.886652	5.110785	994.966431	-9.405010	-2.391020	0.059319	
0.290		-1.218384	5.517048	993.676514	-9.829539	-1.959607	0.081253	
0.300		-2.226386	6.547752	996.336304	-11.215182	-3.046122	0.108997	
0.310		-3.167156	5.510176	998.969238	-10.232787	-5.097363	0.097718	
0.320		-3.197176	4.028497	994.863953	-8.277915	-5.913353	0.077698	
0.330		-2.539712	3.919961	986.886658	-7.949998	-5.292821	0.084372	
0.340		-1.507226	4.928924	983.815613	-9.215863	-3.778035	0.100815	
0.350		-1.502553	4.965229	988.758728	-8.985694	-3.405282	0.069942	
0.360		-1.798150	4.742533	998.685181	-8.291900	-3.557902	0.024960	
0.370		-2.226443	5.132259	1010.966736	-8.783094	-3.882475	0.014571	
0.380		-3.167221	5.565661	1021.809204	-9.496135	-5.361465	0.028853	
0.390		-3.484191	5.497092	1030.873901	-9.358033	-7.036452	0.044469	
0.400		-3.543676	4.496087	1033.167480	-7.161057	-8.311749	0.020661	
0.410		-3.365836	3.138135	1025.571655	-4.081125	-8.191118	0.006300	
0.420		-1.869573	3.631534	1016.615234	-4.488128	-5.242296	0.074764	
0.430		-1.116624	5.276971	1012.685425	-7.501526	-2.491615	0.165812	
0.440		-1.782162	5.728855	1010.411987	-8.628676	-2.703970	0.175019	
0.450		-2.805863	4.953637	1006.396179	-7.511388	-5.106821	0.065210	
0.460		-2.771000	5.078697	1005.236755	-7.922808	-6.230213	-0.012240	
0.470		-2.436984	6.142210	1012.229187	-10.334626	-6.336769	-0.006591	
0.480		-2.698088	5.963866	1018.330994	-10.523014	-7.198525	0.028814	
0.490		-3.766592	5.059771	1017.238770	-8.715887	-8.989496	0.028150	
0.500		-4.815949	5.745152	1010.066345	-9.540051	-10.576274	0.058064	
0.510		-4.694575	6.946359	1012.617310	-11.778798	-10.860749	0.088066	
0.520		-4.931246	6.043045	1025.686646	-10.395924	-11.791553	0.001852	
0.530		-4.692801	5.668168	1039.247314	-8.927105	-12.471340	-0.061100	
0.540		-4.517941	7.195920	1044.278320	-11.115524	-13.014686	-0.055430	
0.550		-4.590811	8.653686	1046.406982	-14.332724	-13.324303	0.002672	
0.560		-5.222861	7.982903	1053.520630	-14.483335	-14.570051	-0.003156	
0.570		-6.171510	7.359038	1065.537109	-14.587329	-16.374352	-0.027022	
0.580		-7.168050	6.448913	1077.897217	-13.991676	-18.253904	-0.053538	
0.590		-6.459898	6.591363	1093.171631	-13.661901	-18.106838	-0.073094	
0.600		-4.380713	7.098073	1113.343872	-13.553610	-15.332016	-0.065465	
0.610		-3.555340	7.145044	1130.267456	-13.156754	-13.227755	-0.018503	
0.620		-3.862676	7.152304	1138.213745	-13.401302	-12.921555	0.040140	
0.630		-4.524645	8.172950	1148.424072	-15.870626	-13.501884	0.104236	
0.640		-5.796140	8.285987	1171.144287	-17.208260	-15.721835	0.104184	
0.650		-6.534200	7.533432	1199.005249	-17.201246	-17.942026	0.056713	
0.660		-5.496726	7.281732	1216.182983	-17.844196	-17.071350	-0.011348	
0.670		-4.034695	7.503541	1221.870605	-19.188242	-14.556671	0.045748	
0.680		-3.460968	8.417890	1233.185547	-21.343395	-12.854728	0.118394	
0.690		-2.891321	8.667600	1244.810181	-21.864361	-10.828771	0.187966	
0.700		-0.479064	7.501116	1242.621216	-20.427116	-5.231384	0.249336	
0.710		1.835420	7.835568	1242.145020	-21.640352	1.349081	0.372131	
0.720		3.513723	8.639784	1254.215332	-23.425243	6.671483	0.460441	
0.730		3.515797	7.188705	1258.024170	-21.539005	8.883974	0.467833	
0.740		3.195683	6.320960	1239.548950	-20.296003	9.927547	0.440604	
0.750		3.541625	7.323767	1199.568604	-22.403347	11.839453	0.465710	
0.760		4.118846	10.855005	1167.982422	-28.753521	14.124767	0.569598	
0.770		4.713804	11.674341	1159.746826	-31.269505	15.353112	0.534850	
0.780		4.909625	9.376814	1160.285889	-28.126287	16.210333	0.442404	
0.790		6.669651	8.965018	1154.441650	-26.634987	20.407307	0.289703	
0.800		8.640428	8.447909	1142.411255	-25.675373	25.608351	0.327098	
0.810		9.636287	8.267375	1118.385864	-25.439678	29.547543	0.405499	
0.820		8.919319	8.364889	1069.734009	-25.816246	30.667997	0.495620	
0.830		8.340395	8.477042	993.722290	-26.179159	31.002422	0.571582	
0.840		9.937642	8.433846	926.301880	-26.009499	35.199623	0.591914	
0.850		13.137696	6.789714	892.575562	-23.459475	42.103832	0.489084	
0.860		14.365143	6.416544	884.332764	-22.023439	47.029301	0.411066	
0.870		16.278593	6.017757	875.367249	-20.051979	53.000225	0.274609	
0.880		15.650171	6.285490	853.064209	-19.445948	56.152710	0.198864	
0.890		17.027283	6.146132	835.327942	-18.704157	61.601017	0.107450	
0.900		15.901159	6.639691	818.021179	-17.375988	62.382698	0.073903	
0.910		15.811551	3.988271	791.378113	-12.287367	62.391499	0.051665	
0.920		16.443617	3.250598	738.181702	-9.282978	63.069408	-0.034321	
0.930		17.462858	3.312253	687.904724	-6.588203	64.154999	-0.195144	
0.940		16.733185	2.502027	654.555786	-3.607134	64.135994	-0.351780	
0.950		17.243969	3.427258	629.466125	-3.834530	68.206276	-0.423815	
0.960		18.182432	1.130720	592.377625	-1.645731	73.205841	-0.472080	
0.970		19.832689	3.352049	553.909180	-4.449497	79.292053	-0.649146	
0.980		20.773319	2.286750	537.466064	-3.391327	82.771523	-0.650844	
0.990		21.874266	2.903260	522.896301	-2.914972	85.648651	-0.798735	
1.000		22.113531	0.599608	501.457642	0.824401	86.632347	-0.698586	
1.010		19.698359	0.033628	483.944305	1.747864	83.244637	-0.754201	
1.020		18.025787	3.358686	476.086792	-2.837179	80.323494	-0.691885	
1.030		17.269218	2.900867	458.875702	-3.317514	77.557274	-0.181699	
1.040		16.305288	4.567733	444.602173	-5.130240	74.503365	-0.036556	
1.050		17.007545	3.063963	440.307648	-2.674723	74.097702	0.088956	
1.060		14.768315	0.781467	454.465118	1.016528	69.427910	0.050956	
1.070		13.946290	-1.011944	470.056885	5.609950	64.629570	-0.245799	
1.080		12.071329	-2.571897	493.930573	9.143286	58.638943	-0.547730	
1.090		10.738078	-2.229859	503.143494	10.245160	55.046169	-0.334010	
1.100		12.300514	-2.848485	510.226959	10.720206	55.924171	-0.477617	
1.110		12.133517	-2.140383	522.439026	10.354344	54.553158	-0.514170	
1.120		12.083286	-0.936860	550.442993	10.349723	53.868454	-0.683702	
1.130		11.070437	-2.104009	577.239075	12.312095	51.615887	-0.844013	
1.140		11.470252	-3.197026	612.097717	14.947696	51.696587	-0.835051	
1.150		11.932754	-2.805602	638.869324	15.635529	51.254749	-0.811763	
1.160		12.440495	-2.424226	668.216919	14.811666	50.903564	-0.381982	
1.170		12.035640	-2.875689	694.987671	14.471297	48.775032	-0.257693	
1.180		11.246582	-2.357762	716.781250	14.131680	46.370628	-0.155398	
1.190		9.026116	-2.944632	753.037231	15.116719	40.759789	0.115954	
1.200		9.097265	-3.392331	807.576416	15.102488	38.085129	0.196004	
1.210		6.678725	-2.917216	860.435608	13.984996	33.321793	0.354269	
1.220		7.610077	-0.582391	900.179688	10.010875	33.339806	0.521559	
1.230		5.287107	0.467290	912.848511	7.530281	28.383028	0.577411	
1.240		6.278756	-0.976750	931.617798	7.722471	28.353041	0.662487	
1.250		7.561504	-0.546493	956.281921	6.987280	28.673233	0.784196	
1.260		7.838811	-0.711450	987.505188	7.794405	26.802849	0.602992	
1.270		6.455088	-0.114141	1024.008423	7.238609	23.308283	0.531846	
1.280		4.709330	-0.214479	1068.642578	8.452692	19.153053	0.404427	
1.290		6.898449	-0.576473	1122.462280	9.788983	19.210344	0.357195	
1.300		7.032853	0.882905	1169.785400	7.850287	16.959412	0.602607	
1.310		5.960796	0.840450	1209.158936	8.919143	12.906639	0.331657	
1.320		3.972419	1.693727	1231.560425	9.057606	7.118958	0.363716	
1.330		0.533744	-1.387715	1243.450562	14.905452	-2.177896	0.239575	
1.340		-4.671106	-1.301444	1242.315918	17.739408	-15.387959	0.139257	
1.350		-4.574461	-4.220022	1238.725220	24.109182	-22.966438	-0.020091	
1.360		-7.798798	-3.233277	1238.979126	25.627518	-33.189335	-0.159340	
1.370		-8.326631	-3.561390	1246.922852	26.892813	-39.236256	-0.268204	
1.380		-12.580262	-2.247167	1263.987183	25.592129	-49.744625	-0.416423	
1.390		-13.701892	-4.832313	1291.324707	29.004541	-56.547295	-0.402118	
1.400		-16.454346	-5.543976	1328.599731	30.888899	-64.452065	-0.645914	
1.410		-18.111942	-7.348104	1356.128784	34.795078	-70.857246	-0.797535	
1.420		-19.531742	-3.137454	1355.731689	30.357841	-76.835403	-0.906036	
1.430		-20.419226	-2.155586	1336.020874	28.113691	-80.956924	-1.154337	
1.440		-21.210331	0.261778	1307.492554	23.837788	-83.166893	-1.225111	
1.450		-22.688072	-2.955758	1292.900757	25.021173	-85.552643	-1.354645	
1.460		-23.249998	-3.213495	1278.337524	25.384691	-87.754967	-1.256388	
1.470		-25.357954	-4.615316	1292.994751	27.551395	-92.402428	-1.245604	
1.480		-26.160337	-2.636599	1312.667603	24.947834	-95.000229	-1.149834	
1.490		-28.575647	-2.591702	1331.561157	24.842020	-99.028305	-0.936838	
1.500		-28.831247	-2.769153	1332.046997	25.210575	-102.538353	-1.255542	
1.510		-28.737398	-3.411012	1331.343628	25.970556	-106.663597	-1.434848	
1.520		-30.623423	-3.327941	1322.424561	26.765240	-111.925240	-1.521732	
1.530		-32.562031	-3.014451	1305.386108	27.293543	-116.801704	-1.723368	
1.540		-33.938007	-5.689751	1283.089600	29.515207	-118.626633	-1.727795	
1.550		-33.655521	-6.537425	1283.733154	31.548353	-117.401939	-1.910032	
1.560		-32.533035	-7.028487	1306.182617	34.159607	-115.132217	-2.004078	
1.570		-31.128061	-5.991534	1330.948120	34.258545	-112.942917	-2.012613	
1.580		-30.347082	-6.602042	1325.627075	35.467773	-111.044975	-2.126713	
1.590		-28.648754	-6.436945	1295.611572	35.277084	-108.204369	-2.070542	
1.600		-30.233278	-5.694870	1279.395386	35.024372	-106.955345	-1.838537	
1.610		-28.471010	-4.436316	1276.392212	33.257584	-102.151680	-1.698118	
1.620		-27.046322	-5.009633	1273.398315	33.928177	-98.837883	-1.596641	
1.630		-26.673410	-5.243567	1259.104736	33.236942	-95.755280	-1.659351	
1.640		-24.301670	-5.624381	1233.580811	31.333555	-89.328705	-1.626190	
1.650		-22.540136	-4.648060	1192.457520	28.135536	-84.070641	-1.548077	
1.660		-22.852238	-1.632301	1155.537231	22.706627	-82.767975	-1.658340	
1.670		-23.478018	-0.410412	1139.400391	19.102543	-81.949226	-1.483311	
1.680		-24.102404	-1.211901	1143.959717	19.065754	-81.405037	-1.188646	
1.690		-21.992224	-2.482801	1150.557007	20.327917	-77.076416	-1.034178	
1.700		-21.171516	0.054638	1149.015991	15.984368	-72.777138	-0.818717	
1.710		-19.009190	1.942547	1146.041138	11.270695	-65.157707	-0.662287	
1.720		-17.900156	-0.108183	1123.720215	12.041954	-60.348938	-0.569782	
1.730		-16.576502	-0.788414	1089.092529	14.394224	-54.717354	-0.421767	
1.740		-15.998358	-0.630213	1059.071655	14.742004	-50.476337	-0.075037	
1.750		-14.081995	-3.481593	1052.844727	17.375244	-44.479553	-0.003235	
1.760		-13.032377	-4.296621	1049.045288	18.671171	-40.375103	-0.029944	
1.770		-11.771769	-4.674238	1041.576782	20.926855	-36.742992	-0.081858	
1.780		-11.694520	-4.110413	1024.514160	22.208933	-35.094982	-0.086990	
1.790		-13.536927	-4.132225	1008.635620	24.202635	-36.445599	-0.150472	
1.800		-12.717138	-3.147035	987.012878	23.953657	-35.114635	0.178140	
1.810		-11.523211	-4.631983	985.592957	26.177385	-34.698433	0.379273	
1.820		-13.576657	-4.783287	999.165222	27.114614	-39.354496	0.312002	
1.830		-18.022276	-3.976116	1015.098938	27.687119	-47.768082	0.110903	
1.840		-18.094179	-2.980047	1006.282288	26.780449	-51.463230	-0.190760	
1.850		-17.574793	-3.170240	960.278564	25.333216	-53.496727	-0.342550	
1.860		-15.413197	-1.937873	917.829346	21.179712	-49.904743	-0.245054	
1.870		-13.510252	-0.775041	877.801758	15.632308	-42.413639	0.055400	
1.880		-12.433484	-0.916237	848.576233	12.116345	-35.218792	0.191148	
1.890		-11.029448	-2.414016	848.937134	12.980721	-30.122133	0.311484	
1.900		-10.019516	-0.224254	860.780823	9.020700	-26.645287	0.481288	
1.910		-7.976873	0.509703	880.761963	4.981797	-22.154547	0.811861	
1.920		-6.862936	1.782207	887.514282	1.590930	-16.282454	0.800414	
1.930		-5.238764	1.232867	881.042786	1.643360	-11.067746	0.816465	
1.940		-4.532103	-0.780291	870.776855	6.255095	-7.492376	0.582477	
1.950		-3.116367	-1.588868	856.887085	10.402561	-3.438513	0.630178	
1.960		-3.195660	-2.235688	851.235474	12.248095	-1.654998	0.826650	
1.970		-2.449846	0.620749	878.482300	8.412484	0.688855	1.215810	
1.980		-4.350312	-1.317107	914.938843	11.482100	-2.162362	1.151879	
1.990		-5.654505	-3.260240	928.281982	15.234056	-4.140433	1.118059	
2.000		-5.118807	-1.429183	920.295532	13.520391	-3.908320	1.263977	
2.010		-5.982261	0.351647	900.194885	10.589478	-5.379788	1.557830	
2.020		-5.770643	1.933661	903.778259	6.686353	-4.811501	1.702741	
2.030		-4.351489	2.804596	919.593201	2.253628	-1.623628	1.722614	
2.040		-1.926519	2.478202	921.852600	0.005392	3.469909	1.608335	
2.050		-1.302190	3.509891	910.840637	-2.522399	5.506544	1.533074	
2.060		-0.228436	3.158305	903.663635	-2.710953	5.703476	1.512298	
2.070		-1.809888	3.618723	895.278992	-4.423726	1.145959	1.456168	
2.080		-4.061613	6.084752	887.845032	-9.840647	-7.121696	1.455797	
2.090		-8.410188	6.373665	905.981262	-12.109474	-18.198679	1.112411	
2.100		-11.753141	4.757572	968.242554	-10.839141	-26.878462	1.205529	
2.110		-13.004760	3.454664	1013.570862	-9.332383	-31.873674	1.139140	
2.120		-12.836535	5.633420	1032.390503	-11.639436	-34.621578	1.390233	
2.130		-13.295125	5.739055	1039.487793	-11.958705	-38.739723	1.335422	
2.140		-18.683966	5.351990	1047.725464	-10.880836	-49.616070	1.155823	
2.150		-18.896601	3.512103	1066.512085	-6.876089	-55.405380	0.991857	
2.160		-21.654076	2.944164	1103.211548	-3.664136	-63.332909	0.756526	
2.170		-23.159204	2.530717	1159.990234	-2.302560	-67.026627	1.012391	
2.180		-24.240213	4.687809	1212.365723	-6.051190	-71.432365	1.052297	
2.190		-25.401871	4.231765	1240.343140	-6.961712	-76.483200	0.663567	
2.200		-24.548122	4.734230	1266.586182	-8.385671	-78.395058	0.656083	
2.210		-24.296894	5.052569	1287.491211	-8.544774	-79.233139	0.341438	
2.220		-21.624918	3.908043	1340.552979	-8.938366	-75.541351	0.418149	
2.230		-19.465904	6.931807	1387.452148	-14.567162	-72.583572	0.559520	
2.240		-25.178522	3.884050	1426.212769	-10.303320	-79.795746	0.353162	
2.250		-23.623281	2.181042	1442.385498	-5.455019	-81.996216	0.004829	
2.260		-27.121931	0.611983	1464.100708	-3.643664	-91.050461	-0.231146	
2.270		-25.268759	3.340286	1494.037476	-6.492361	-92.319321	-0.223439	
2.280		-26.819942	4.602706	1508.087280	-9.818775	-95.827415	0.052518	
2.290		-27.587383	4.675451	1542.236450	-11.054902	-98.068161	0.196434	
2.300		-25.917406	4.774930	1567.191162	-12.165317	-97.108047	-0.084010	
2.310		-27.160078	6.441464	1594.659546	-14.153211	-98.481438	-0.406464	
2.320		-26.644012	4.220641	1639.611938	-9.877721	-99.166870	-0.798773	
2.330		-28.368660	2.384294	1682.196655	-5.095010	-103.779526	-1.143186	
2.340		-27.482681	1.168598	1700.434082	-1.375670	-105.257446	-1.237149	
2.350		-27.859192	0.894921	1681.093140	1.601723	-108.137444	-1.494527	
2.360		-27.464491	-2.484442	1645.947510	7.943261	-108.687126	-1.459353	
2.370		-28.552145	-0.844848	1636.222534	7.499826	-110.383438	-1.611311	
2.380		-30.917425	-0.654258	1624.467041	8.139720	-114.237839	-1.330445	
2.390		-30.439243	2.143224	1602.430420	5.634161	-116.125801	-1.272703	
2.400		-29.409578	2.262299	1608.261719	7.348258	-117.071175	-1.340189	
2.410		-31.304960	-1.611136	1611.512207	14.028488	-120.021286	-1.718146	
2.420		-31.471577	-3.718579	1619.814209	19.095911	-120.275208	-2.089699	
2.430		-31.030325	-5.407422	1614.775024	24.311819	-119.732407	-2.145295	
2.440		-30.159389	-4.020169	1604.828613	25.974794	-119.568954	-2.388318	
2.450		-32.227131	-5.007594	1579.878418	29.249847	-123.527084	-2.694717	
2.460		-35.997467	-5.070222	1546.716919	31.705620	-129.727158	-2.813986	
2.470		-36.410084	-6.865933	1491.522583	35.074005	-132.045044	-2.963820	
2.480		-38.186661	-7.879908	1434.315186	37.480740	-135.212738	-2.745988	
2.490		-36.128628	-9.113495	1379.117065	40.433434	-134.613281	-2.747057	
2.500		-38.560974	-5.767610	1330.973267	38.421021	-137.640396	-2.657639	
2.510		-36.249634	-8.215687	1311.860352	43.764179	-136.134201	-2.871920	
2.520		-38.792469	-8.483526	1310.674438	46.939377	-139.205963	-2.976017	
2.530		-37.421417	-10.854868	1323.815552	53.414448	-136.895859	-2.870093	
2.540		-38.324917	-8.707259	1305.661011	53.966663	-136.198196	-2.693413	
2.550		-35.854576	-11.063516	1283.088867	57.400177	-131.016983	-2.760440	
2.560		-38.359726	-10.855700	1239.590454	56.982792	-130.752457	-2.817594	
2.570		-33.594486	-10.023744	1192.054199	56.380138	-121.776505	-2.792193	
2.580		-33.220493	-9.479257	1136.030151	54.643654	-117.319321	-2.498152	
2.590		-30.648252	-8.893538	1105.379028	54.424866	-110.340569	-2.205050	
2.600		-29.613918	-11.813848	1094.406128	60.666527	-106.027344	-2.260741	
2.610		-30.054518	-14.801378	1072.497925	67.350311	-102.673195	-2.092252	
2.620		-27.073666	-14.005689	1059.721191	69.873787	-96.231819	-2.037647	
2.630		-26.646307	-13.002153	1055.181519	71.809921	-93.983315	-2.008349	
2.640		-26.372000	-14.467544	1049.677124	76.424446	-91.250793	-1.858551	
2.650		-28.367670	-15.109967	1022.280945	78.579597	-91.300034	-1.879170	
2.660		-26.872196	-17.055080	966.096924	81.427422	-87.460335	-1.810692	
2.670		-28.346781	-20.302309	927.738403	86.916634	-86.827118	-1.538889	
2.680		-24.278301	-16.780813	903.850159	84.406853	-80.038307	-1.347280	
2.690		-23.651136	-16.844795	879.706299	83.825134	-75.917915	-0.905520	
2.700		-18.760460	-17.343077	847.075928	84.024994	-66.040039	-0.818031	
2.710		-20.192741	-17.110748	821.145752	82.551338	-63.007088	-0.739602	
2.720		-16.835583	-17.097017	812.114197	82.273674	-54.020050	-0.598241	
2.730		-16.121185	-13.919612	800.703064	77.444557	-49.058647	-0.636729	
2.740		-13.953978	-14.655461	804.415771	78.320335	-43.759346	-0.425520	
2.750		-13.614612	-17.067085	798.501831	80.810852	-40.374920	-0.512440	
2.760		-12.141047	-17.188778	796.720398	80.876244	-35.791721	-0.303759	
2.770		-11.529195	-16.341854	760.962524	78.859894	-31.464174	-0.246145	
2.780		-10.569618	-15.377417	722.066528	75.244446	-28.357643	0.011790	
2.790		-12.100815	-13.969738	679.520508	71.122757	-29.795015	0.047347	
2.800		-12.947151	-13.493095	660.757080	68.233788	-32.158520	-0.233879	
2.810		-13.262273	-14.125230	652.931152	66.345482	-32.743263	-0.154151	
2.820		-12.328310	-12.545137	661.689331	62.889954	-31.454426	-0.399452	
2.830		-11.318800	-14.216978	682.891663	63.389278	-27.698870	-0.279210	
2.840		-12.134931	-12.743394	728.187500	60.372154	-26.637388	-0.272287	
2.850		-10.678459	-13.528734	761.773193	59.455853	-23.460371	-0.022814	
2.860		-12.371033	-12.901082	764.416077	56.209198	-22.738113	0.146116	
2.870		-11.650107	-13.429473	757.738220	53.416241	-20.288273	0.539436	
2.880		-12.093804	-11.918639	739.967834	48.315098	-18.756344	0.461750	
2.890		-10.405541	-11.298204	719.084778	45.390362	-16.192488	0.383590	
2.900		-7.002538	-10.096980	707.644226	40.592670	-12.006932	0.565957	
2.910		-8.261423	-7.003954	723.264038	33.483482	-12.198228	0.606504	
2.920		-6.588338	-7.704016	778.951294	32.787930	-10.705317	0.676997	
2.930		-7.972576	-10.701823	836.356323	36.137726	-12.116991	0.268090	
2.940		-2.462637	-11.446700	888.718872	36.816708	-3.374137	0.180391	
2.950		-2.123803	-12.263575	932.305359	36.457737	1.524960	0.341154	
2.960		2.449827	-11.034467	950.844849	33.936535	11.205175	0.385807	
2.970		4.644807	-10.644358	949.738037	33.848518	20.412651	0.345312	
2.980		5.362483	-13.880842	929.105530	38.012703	26.094700	0.563246	
2.990		4.454295	-12.897052	950.854980	36.773888	29.418470	0.602142	
3.000		6.911092	-13.195038	992.249390	36.324657	37.490467	0.832183	
3.010		8.900198	-10.617013	1022.172424	33.049786	45.067802	0.913702	
3.020		11.075935	-12.419765	1020.356384	36.311493	51.887863	0.843253	
3.030		13.198543	-12.107443	991.854614	35.712383	58.073425	0.702548	
3.040		12.796728	-14.713115	963.488525	39.419750	60.055019	0.530468	
3.050		15.233566	-12.493734	955.413330	37.170002	63.119400	0.471855	
3.060		14.214084	-12.391341	960.757385	35.239964	61.409924	0.448233	
3.070		15.618172	-6.654144	988.363525	25.237127	63.033943	0.344356	
3.080		16.101994	-6.980606	1000.918579	22.677191	64.375084	0.319367	
3.090		16.287512	-3.726552	970.176880	17.018309	65.994865	0.267977	
3.100		18.159527	-6.439646	907.334473	18.105349	70.193741	0.452610	
3.110		16.755104	1.222357	848.951355	7.546143	69.958038	0.647859	
3.120		19.961349	-3.156169	803.616455	10.724585	74.393517	0.292062	
3.130		20.263117	-0.458998	791.191223	7.165066	75.290436	0.197100	
3.140		21.927225	-5.140947	804.536804	13.991042	77.691841	0.106246	
3.150		19.738544	-2.431779	813.875366	13.430994	75.290039	-0.259861	
3.160		18.973930	-3.936086	803.009766	15.862459	74.366547	-0.301751	
3.170		20.006054	-0.570896	768.655823	12.548863	73.826279	-0.463828	
3.180		17.290277	-1.573689	742.084290	14.623881	67.566109	-0.482290	
3.190		15.771829	-1.759640	731.809265	15.929708	62.583282	-0.426634	
3.200		14.713309	-4.324180	718.674683	21.365799	59.592255	-0.591615	
3.210		14.025949	-5.464588	717.284729	24.876919	58.314037	-0.540339	
3.220		13.392475	-6.601376	705.880371	27.555740	57.119194	-0.573696	
3.230		12.911598	-6.090149	687.327942	29.877846	56.749187	-0.507993	
3.240		9.620919	-8.746605	656.065857	36.178551	51.839718	-0.752721	
3.250		9.837928	-10.337584	661.092163	40.971516	51.792992	-0.591979	
3.260		8.989380	-8.809226	686.175049	40.587067	49.502384	-0.612780	
3.270		6.969214	-9.730159	716.781128	41.749401	46.166924	-0.695474	
3.280		9.752385	-8.264393	726.547852	39.659466	48.169827	-0.723713	
3.290		9.971512	-9.950672	713.373962	40.541344	47.794048	-0.727771	
3.300		10.875854	-10.218162	673.800720	41.892483	47.494392	-0.583896	
3.310		10.207150	-12.391851	638.176697	45.903557	45.214447	-0.868370	
3.320		10.457888	-11.084907	628.332886	44.895329	44.188610	-0.874234	
3.330		7.336094	-10.982367	652.540588	45.839066	39.357780	-1.069792	
3.340		6.821623	-9.124743	703.678284	44.144321	38.033386	-0.850070	
3.350		3.896481	-9.559936	761.854126	44.913383	31.140659	-0.738331	
3.360		4.523201	-8.548620	788.533447	43.355431	27.770313	-0.411624	
3.370		1.534330	-8.859478	800.397644	43.368080	20.134418	-0.282760	
3.380		2.339894	-6.347084	790.188416	39.009007	18.745779	-0.260920	
3.390		2.847057	-4.646722	771.116272	33.967812	18.473204	-0.307675	
3.400		1.257677	-5.440187	784.417358	31.407379	15.724390	-0.597704	
3.410		0.751378	-5.433222	820.327209	28.836197	14.035942	-0.776511	
3.420		-0.108612	-4.828266	880.478455	26.075909	11.709608	-1.151470	
3.430		2.161108	-6.237745	928.831360	26.037970	12.915978	-1.299480	
3.440		-0.326877	-5.908089	960.121460	24.538527	8.439072	-1.574857	
3.450		-0.044478	-6.029267	986.546692	24.428017	8.036736	-1.496999	
3.460		-0.398670	-7.398905	1024.298584	26.725483	6.989531	-1.100408	
3.470		-0.218278	-9.356832	1046.542969	29.843117	5.541062	-0.670103	
3.480		-1.081198	-6.140173	1075.772095	26.999184	3.175135	-0.382461	
3.490		-0.427160	-5.400539	1093.739624	27.153713	2.427125	-0.068038	
3.500		-2.327484	-8.299939	1112.850708	32.607616	-2.573018	-0.206781	
3.510		-0.555805	-8.369819	1140.842285	35.561687	-4.478510	-0.310989	
3.520		-5.491724	-9.480120	1179.576660	40.212311	-15.003335	-0.460330	
3.530		-4.911715	-10.178992	1226.088379	43.643684	-18.723640	-0.832786	
3.540		-8.083800	-10.669811	1259.313354	45.138668	-25.953960	-0.818878	
3.550		-7.033961	-8.342447	1286.728027	39.945892	-27.110472	-0.855910	
3.560		-9.092111	-7.298223	1315.358765	37.505562	-32.020496	-0.859909	
3.570		-11.068893	-8.331607	1349.249634	38.715179	-36.275909	-1.127321	
3.580		-9.915367	-4.263355	1357.166992	33.711380	-36.448498	-1.221906	
3.590		-10.186376	-4.383353	1327.954468	32.831917	-38.839737	-1.300730	
3.600		-10.537361	-4.444990	1296.951416	30.803978	-40.773952	-1.163416	
3.610		-9.876684	-3.518778	1289.069092	27.353239	-41.912289	-0.971459	
3.620		-9.239573	-4.766803	1306.154419	26.893955	-42.594891	-1.067038	
3.630		-12.029953	-3.394064	1324.774048	23.206366	-46.452782	-1.208548	
3.640		-11.980922	-3.134816	1335.355347	20.209009	-47.381680	-1.206543	
3.650		-13.102475	-1.987727	1341.268555	15.834165	-49.858135	-1.047110	
3.660		-15.342548	1.463436	1328.169189	7.486045	-54.353596	-1.039924	
3.670		-17.009739	2.512213	1339.131958	2.228588	-59.150761	-1.414333	
3.680		-20.790771	4.344038	1339.418091	-1.062099	-66.626068	-1.690920	
3.690		-18.304003	2.719356	1363.012573	1.187640	-66.215195	-1.745375	
3.700		-23.528801	3.186313	1374.050415	2.768925	-75.512085	-1.685713	
3.710		-24.321833	1.367065	1374.355957	7.157083	-79.904137	-1.721104	
3.720		-26.923588	1.774237	1353.078735	9.295316	-86.600075	-1.797675	
3.730		-28.441311	-2.163590	1317.813232	15.184017	-92.995499	-2.166994	
3.740		-29.978004	-0.346369	1312.048828	13.657982	-98.322716	-2.206196	
3.750		-30.965502	-2.750902	1315.454224	17.676796	-101.639900	-2.244207	
3.760		-30.593130	-2.230944	1332.397705	17.365011	-101.876991	-1.769552	
3.770		-28.250225	-2.418814	1369.399780	18.471176	-98.995514	-1.403006	
3.780		-31.643595	-3.870479	1414.494629	22.971525	-103.096237	-1.451588	
3.790		-28.822535	-6.929998	1414.080200	29.259726	-100.212387	-1.481719	
3.800		-29.506502	-5.281043	1401.906616	30.192755	-100.818985	-1.587611	
3.810		-29.406624	-6.720280	1386.423950	32.933537	-99.803833	-1.680850	
3.820		-27.872810	-5.002688	1368.333618	30.449879	-97.441368	-1.589200	
3.830		-26.294924	-7.438507	1328.885498	33.877384	-94.659622	-1.787150	
3.840		-27.510088	-7.262757	1308.117432	34.782368	-94.785095	-1.688763	
3.850		-27.953430	-9.314457	1306.609863	38.217148	-94.669357	-1.747926	
3.860		-25.849085	-9.042621	1321.809937	38.624870	-91.143501	-1.835153	
3.870		-24.559824	-6.530919	1315.946655	34.016953	-86.303543	-1.747461	
3.880		-21.047176	-3.000939	1311.481079	27.724916	-77.520828	-1.441586	
3.890		-19.027489	-1.857462	1299.031250	23.630451	-69.887756	-1.330916	
3.900		-16.587599	-2.419783	1280.539673	23.354008	-60.405457	-1.487280	
3.910		-14.409286	-4.803727	1257.330811	26.820059	-51.370262	-1.630021	
3.920		-10.970102	-4.799318	1207.367065	26.345343	-39.228035	-1.494440	
3.930		-4.756852	-3.384375	1174.242310	22.285748	-22.512707	-1.174378	
3.940		-0.565435	-1.227476	1144.196777	18.223734	-7.962721	-0.963701	
3.950		3.654154	-3.515372	1128.610107	20.608679	6.119051	-0.956377	
3.960		6.624560	-2.105455	1118.223267	18.651011	17.520123	-0.898235	
3.970		9.307004	-5.097662	1101.947632	22.205534	27.441286	-0.764619	
3.980		10.109727	-4.653761	1076.223877	22.281527	35.561760	-0.755368	
3.990		13.019512	-2.312268	1038.343872	20.059242	44.255173	-0.748841	
4.000		12.346303	-3.883475	1000.145386	23.121452	46.725754	-0.892719	
4.010		14.591331	-2.189893	956.519104	22.509287	52.219982	-0.818983	
4.020		15.493156	-5.850375	920.679626	28.250469	55.716309	-0.821893	
4.030		15.452182	-3.470049	883.969543	25.494394	56.466011	-0.915650	
4.040		12.080855	-6.646720	864.542419	29.125513	53.042995	-1.083388	
4.050		14.809178	-3.235911	849.645874	25.846226	56.432587	-1.438071	
4.060		13.646968	-7.513247	842.303894	31.730812	55.564785	-1.673727	
4.070		15.304148	-4.274832	826.200989	28.510534	57.658287	-1.648380	
4.080		10.538274	-6.786596	806.606506	31.533266	52.396275	-1.587797	
4.090		14.319034	-6.915327	765.713013	31.379641	57.021053	-1.284977	
4.100		12.627871	-10.849620	708.268799	35.944176	55.027290	-1.229167	
4.110		14.985880	-7.599605	655.404602	32.529663	58.308029	-1.294306	
4.120		13.728386	-10.380870	623.425110	36.147614	58.348969	-1.265689	
4.130		13.202905	-9.394617	608.406982	35.255272	59.014675	-1.363192	
4.140		14.379916	-11.586197	607.387268	36.550232	61.794800	-1.399909	
4.150		13.706982	-5.473158	606.764282	26.946186	61.930908	-1.382698	
4.160		15.736096	-7.463155	607.410706	26.834347	65.073235	-1.461046	
4.170		15.648263	-4.879713	606.050232	22.588760	66.719040	-1.598683	
4.180		19.081226	-7.854125	598.390320	25.908186	72.957520	-1.473166	
4.190		18.567141	-4.309391	587.660095	21.158802	75.918068	-1.195633	
4.200		21.412928	-6.063251	589.554688	21.554752	83.098381	-1.102386	
4.210		23.148849	-2.288932	588.736938	15.789574	88.932961	-1.009411	
4.220		23.410545	-5.068749	598.631531	16.970715	93.721687	-0.971777	
4.230		24.006895	-4.335311	591.705933	13.661637	97.762947	-0.825626	
4.240		25.388809	-3.081941	575.409302	10.527501	101.156349	-0.660765	
4.250		29.323139	-1.059636	558.824829	6.556601	107.162491	-0.616749	
4.260		30.443287	1.272556	558.599121	2.179536	112.346817	-0.409570	
4.270		31.448484	0.424347	572.471008	1.237550	118.184654	-0.687489	
4.280		32.305252	1.679124	596.623230	-1.987961	122.995750	-0.834861	
4.290		33.907551	1.497545	609.177002	-3.220607	126.361748	-1.077031	
4.300		36.272823	4.048087	613.059814	-8.445111	128.905090	-0.972825	
4.310		37.349567	5.049607	640.911987	-14.127667	132.169769	-0.934810	
4.320		39.634121	8.403701	673.615784	-21.033081	136.884415	-0.836267	
4.330		41.579025	7.536651	698.321045	-23.063255	141.241013	-0.737466	
4.340		40.370525	8.521644	706.490601	-24.813433	142.160400	-0.563276	
4.350		42.672489	5.709253	703.668335	-21.807070	144.954483	-0.509766	
4.360		43.299587	9.282641	705.552124	-26.253822	146.096680	-0.324602	
4.370		42.237087	8.402976	702.723450	-27.903572	145.373352	-0.203796	
4.380		44.080048	10.110530	707.261658	-31.244923	146.243164	-0.042245	
4.390		43.097710	9.052555	737.020142	-30.016146	144.964539	-0.061778	
4.400		42.645313	7.714271	769.681702	-27.354282	143.289581	-0.199555	
4.410		40.964069	7.859105	810.712524	-27.245762	142.208664	-0.001941	
4.420		40.222454	7.593487	829.358582	-28.932413	140.531586	0.058328	
4.430		39.636726	11.504581	819.379822	-34.766285	137.047836	0.036149	
4.440		41.142559	11.534335	815.759216	-36.494995	135.102234	-0.278831	
4.450		40.308174	14.695562	840.912354	-41.852291	132.958435	-0.264626	
4.460		41.345871	13.762973	874.895020	-40.889877	134.235626	0.050742	
4.470		41.700710	14.816703	922.078979	-42.668182	135.660858	0.814766	
4.480		41.649540	12.109596	946.039429	-40.750511	135.965744	0.915577	
4.490		43.386517	13.112875	955.892029	-41.623837	138.087585	0.118037	
4.500		41.592216	13.309743	941.967529	-42.543705	138.062103	-0.229768	
4.510		43.903378	10.287343	924.120972	-39.680195	141.520844	0.076194	
4.520		40.303577	10.483491	930.061279	-40.031910	139.625626	0.460941	
4.530		42.947624	10.293181	948.340576	-39.752430	143.259583	0.997787	
4.540		44.338882	11.277244	957.756226	-41.305004	145.398285	1.066893	
4.550		44.179031	11.220512	955.789368	-40.731827	145.871262	0.777837	
4.560		44.260384	12.299269	943.249268	-41.285164	145.868088	0.216544	
4.570		44.244640	12.332137	935.007751	-41.658310	144.932190	0.180432	
4.580		40.780891	11.296886	939.449463	-41.575600	141.977798	0.344148	
4.590		39.854561	14.148499	960.508362	-45.556679	141.527435	0.582207	
4.600		39.383217	12.568281	986.510315	-45.805618	140.364761	0.354326	
4.610		39.469666	10.671312	1020.609985	-42.098915	139.341888	-0.221193	
4.620		37.112453	4.895171	1019.165833	-33.426392	136.312180	-0.639078	
4.630		39.858055	3.873375	979.318848	-29.107269	136.570007	-0.499578	
4.640		38.421303	3.941134	922.563049	-26.601854	133.231308	-0.070376	
4.650		35.330620	7.038053	862.532593	-25.687262	127.865700	0.307900	
4.660		35.619358	4.450438	830.032166	-18.725487	126.165253	0.159026	
4.670		36.595055	3.547672	833.853088	-14.707863	125.351730	-0.295327	
4.680		35.704193	-0.685124	882.600891	-7.362617	124.948029	-0.654560	
4.690		36.222481	0.428491	918.229065	-4.426970	125.775719	-0.611826	
4.700		35.006168	0.062440	883.143677	0.283410	121.620209	-0.500366	
4.710		33.831257	2.493077	825.886902	0.778660	116.717522	-0.415982	
4.720		32.742580	-0.321144	793.879456	6.022103	111.234077	-0.887125	
4.730		29.580011	-1.059508	776.417603	7.870279	103.770782	-1.529614	
4.740		31.409342	-0.465395	775.223328	8.458185	102.363670	-1.364158	
4.750		26.733259	1.621478	782.282654	7.663247	94.991554	-1.359005	
4.760		25.902689	1.966741	783.750305	8.775628	90.764748	-1.126715	
4.770		23.095095	-0.104100	773.339539	13.682108	84.848824	-1.258856	
4.780		19.883213	-1.296812	745.153870	17.197134	76.982162	-1.904101	
4.790		19.728605	-5.700552	719.885010	24.179998	72.773834	-2.244453	
4.800		16.031097	-3.041476	695.730774	22.775085	65.647621	-2.218514	
4.810		17.628962	-1.689683	677.696411	21.076090	64.839928	-1.752511	
4.820		16.059761	2.765382	674.622559	15.445671	62.952019	-0.934360	
4.830		17.487022	0.584306	691.359985	17.497200	63.939205	-0.953578	
4.840		19.788975	1.506937	729.227539	16.906986	65.968231	-0.995681	
4.850		17.123220	-0.796784	769.151428	19.758121	62.148872	-1.376048	
4.860		17.107904	-0.185013	792.151855	19.441496	60.162380	-1.279509	
4.870		13.144773	-2.737564	797.278137	23.777378	52.828671	-1.076518	
4.880		14.777203	-0.910150	817.457642	24.394487	51.348137	-0.711612	
4.890		12.593844	-2.876518	829.870789	31.070736	44.367668	-0.272674	
4.900		12.364527	-3.257815	840.854675	36.382832	40.046822	-0.140580	
4.910		13.742287	-6.194525	843.273193	44.280838	36.797295	-0.260382	
4.920		9.426329	-8.661185	854.844666	53.339046	27.749100	-0.582619	
4.930		9.693254	-9.970674	891.508972	60.326023	24.355745	-0.598013	
4.940		8.639003	-11.986045	934.027710	65.899254	20.857031	-0.823873	
4.950		8.750566	-10.769488	997.789124	67.671631	19.596315	-0.948325	
4.960		6.548545	-15.777847	1040.716797	74.613777	15.270471	-0.717467	
4.970		8.185506	-13.506564	1052.744751	72.926544	15.148756	-0.538049	
4.980		6.693062	-12.576220	1057.521240	71.157143	10.019992	-0.455348	
4.990		7.067710	-10.693032	1067.934448	67.297569	7.595589	-0.342759	
5.000		3.490666	-10.948268	1092.908569	65.790878	-0.509822	-0.397965	
5.010		2.724025	-12.789096	1124.218994	64.716133	-4.769808	-0.691279	
5.020		0.630055	-10.631604	1155.138428	59.834011	-9.193496	-0.831894	
5.030		-2.956925	-9.266623	1177.611206	57.055058	-14.711517	-1.059422	
5.040		-2.447386	-7.749093	1183.645752	55.715271	-18.034998	-0.944466	
5.050		-4.373363	-9.367636	1175.557983	56.239029	-25.655081	-0.503982	
5.060		-5.079084	-6.957414	1164.466187	53.108517	-32.674713	-0.751924	
5.070		-10.537916	-8.855299	1163.722290	52.530750	-45.847424	-1.379543	
5.080		-10.681836	-6.476348	1188.480347	45.838104	-52.923656	-1.715529	
5.090		-18.938345	-6.864941	1216.744751	42.048328	-67.944511	-1.610892	
5.100		-17.954020	-2.612446	1236.790894	33.829140	-71.641357	-1.537315	
5.110		-21.202969	-4.489326	1255.262329	34.244785	-79.537781	-1.470165	
5.120		-21.478960	-3.089083	1253.364746	32.462559	-83.287712	-1.804865	
5.130		-22.399710	-2.515751	1263.010132	30.439575	-87.011292	-1.804129	
5.140		-25.753904	-4.310786	1277.393799	30.809792	-91.936249	-1.717323	
5.150		-24.523891	-4.930746	1296.572754	30.861145	-93.815147	-1.587680	
5.160		-26.631632	-5.611098	1309.272949	31.541306	-99.292381	-1.662291	
5.170		-26.479380	-5.682260	1330.705688	32.485245	-100.101089	-1.866969	
5.180		-25.138538	-3.074385	1351.110962	30.580200	-98.969902	-2.074509	
5.190		-22.766224	-6.303459	1340.260132	35.582748	-94.293633	-2.114589	
5.200		-24.004377	-6.603333	1322.674927	35.813110	-93.556366	-2.171514	
5.210		-23.148092	-7.301928	1317.433228	35.825611	-90.031441	-2.338535	
5.220		-26.504322	-4.221761	1321.421875	29.403969	-91.830406	-1.895197	
5.230		-23.659853	-1.985354	1331.131348	24.110003	-90.023834	-1.965151	
5.240		-28.298742	-1.331124	1340.073242	20.802320	-98.305122	-1.918833	
5.250		-29.135035	-1.646623	1346.911743	17.973545	-102.965790	-1.904184	
5.260		-30.311266	0.414116	1353.896362	10.861052	-107.770073	-1.801218	
5.270		-31.579638	2.991168	1378.426880	3.830774	-111.254272	-1.656566	
5.280		-32.705002	3.317520	1408.277832	-1.000216	-114.035622	-1.998370	
5.290		-33.977196	3.228593	1424.238647	-4.439304	-116.446785	-1.975573	
5.300		-32.071632	4.698738	1402.372559	-9.133284	-113.884315	-1.470202	
5.310		-32.891964	5.637399	1382.743164	-12.425117	-114.923180	-1.070191	
5.320		-32.258484	6.148639	1377.157104	-14.660979	-115.228394	-1.285259	
5.330		-35.381371	4.928980	1378.019409	-14.671747	-118.938988	-1.585881	
5.340		-32.234650	5.844804	1383.520508	-17.675129	-115.513573	-1.962687	
5.350		-30.473249	8.133442	1394.630127	-21.204885	-112.867981	-2.027357	
5.360		-27.810446	7.279078	1410.194458	-23.774494	-106.639778	-2.163193	
5.370		-26.124846	9.315889	1428.970947	-30.306490	-98.492264	-2.070286	
5.380		-23.130386	12.359321	1443.155884	-37.381584	-90.217316	-1.933158	
5.390		-23.134119	11.789128	1444.372314	-38.711094	-86.722473	-1.656000	
5.400		-18.754930	13.117132	1490.945435	-40.836311	-79.139091	-1.510492	
5.410		-20.455496	11.989313	1515.518799	-39.397942	-78.511887	-1.104145	
5.420		-16.508461	12.597818	1524.853394	-39.631466	-70.737663	-0.813880	
5.430		-18.435116	10.676575	1507.572632	-36.934048	-69.102402	-0.658571	
5.440		-13.649611	9.988115	1489.193115	-36.100773	-59.908562	-0.314308	
5.450		-12.387574	9.791434	1474.705566	-34.840214	-52.251221	-0.092704	
5.460		-8.978832	8.882688	1472.622192	-31.970739	-43.601852	-0.201762	
5.470		-9.075731	6.491332	1500.228882	-27.087444	-37.839691	-0.098249	
5.480		-7.073393	7.435283	1521.963501	-28.186043	-28.408184	-0.200335	
5.490		-2.867997	7.845607	1502.379761	-29.776735	-18.250946	-0.068485	
5.500		-2.620586	8.787442	1454.921509	-31.257139	-12.970651	-0.293945	
5.510		0.368899	6.014298	1403.107056	-29.280539	-4.551599	-0.377398	
5.520		-1.124769	9.120643	1370.418335	-33.233475	-1.498735	-0.157343	
5.530		1.534929	9.384809	1357.844849	-33.358372	5.894009	0.138250	
5.540		2.799592	12.674687	1356.487305	-37.721962	10.020430	0.558708	
5.550		2.597533	9.707743	1357.125977	-33.834991	12.415494	0.783917	
5.560		4.944620	6.487137	1348.470459	-28.908030	17.184029	0.903565	
5.570		5.640252	3.440023	1314.245483	-21.319168	19.973692	1.131771	
5.580		5.544144	4.259554	1240.702759	-18.678871	21.628538	1.151165	
5.590		5.785840	3.262082	1169.788696	-13.768351	20.810047	0.719908	
5.600		4.714356	4.872341	1121.683350	-12.944198	17.808218	0.078710	
5.610		6.018801	2.849847	1083.259399	-8.952490	18.836855	-0.072930	
5.620		4.870295	-0.543892	1053.971436	-2.186647	17.667891	-0.514488	
5.630		4.574443	-0.471347	1033.164307	1.276729	18.906300	-0.383791	
5.640		6.818291	0.560522	1014.384338	2.990177	24.706104	-0.257813	
5.650		7.861366	2.249675	963.785400	3.940659	28.944054	-0.021566	
5.660		13.557549	0.515513	922.489441	7.185493	39.123474	0.253069	
5.670		10.700515	-0.944977	891.289429	9.503965	41.466801	0.050982	
5.680		14.788154	-1.844665	853.978455	12.785368	51.998692	-0.318842	
5.690		14.728802	-0.173566	792.312073	13.651288	56.787132	-0.500081	
5.700		17.318487	-4.974530	733.947266	21.952738	63.500076	-0.485276	
5.710		20.488054	-4.035411	688.552185	24.081747	70.615952	-0.479417	
5.720		21.006632	-6.431444	672.746277	30.307653	75.055397	-0.679708	
5.730		24.664103	-7.919939	633.330627	35.515423	82.165375	-0.595038	
5.740		24.781431	-9.283377	582.486572	41.317364	85.345604	-0.699728	
5.750		24.911020	-11.134271	536.901733	46.328228	87.520088	-0.803025	
5.760		26.260166	-11.867929	489.226013	49.014458	89.485817	-0.834001	
5.770		25.612816	-11.689998	426.665955	50.153969	88.373978	-1.059851	
5.780		26.341791	-12.272640	369.134125	51.041924	87.637764	-1.284773	
5.790		27.473553	-13.627834	324.017303	52.727894	87.163826	-1.369980	
5.800		28.052414	-11.249673	309.295166	51.502876	87.770760	-1.623867	
5.810		27.871410	-12.499089	298.658325	52.387314	88.437263	-1.366086	
5.820		29.650579	-12.860937	288.791168	51.039314	91.188797	-1.021436	
5.830		31.629349	-8.816859	276.570282	46.633606	94.092621	-0.778373	
5.840		31.033014	-7.637948	245.915039	43.606464	93.367081	-0.404476	
5.850		31.989182	-6.769288	210.620712	41.242992	92.969994	-0.033404	
5.860		31.794806	-8.681334	185.513275	42.708870	92.394119	0.237177	
5.870		30.927588	-6.525786	156.139771	39.809464	90.296509	-0.160682	
5.880		30.157019	-15.448864	129.367889	46.275284	88.513885	-0.226469	
5.890		30.812565	-10.539538	111.368622	42.021835	88.520035	-0.006749	
5.900		31.417555	-6.946809	88.947884	37.840706	87.498672	-0.257143	
5.910		29.764359	-10.944936	68.497253	40.279114	84.810005	-0.994162	
5.920		27.544998	-6.328720	49.124271	34.203739	81.237434	-1.079456	
5.930		26.337181	-5.842867	39.060612	31.803595	79.581879	-0.783813	
5.940		26.651514	-7.239634	59.060307	32.221909	81.069649	-0.812381	
5.950		26.726908	-2.495508	87.664864	27.487469	82.883713	-0.736624	
5.960		26.654354	-5.748735	118.880836	30.233963	84.184830	-0.434060	
5.970		27.219847	-3.073544	146.364899	28.243345	85.539795	-0.639516	
5.980		29.270414	-4.931537	167.686844	29.535347	88.002617	-0.440242	
5.990		29.274481	-6.731269	180.277023	31.474930	88.721397	-0.459250	
6.000		30.042912	-2.323369	195.934952	27.907217	89.685707	-0.677639	
6.010		28.899755	-8.549243	203.790466	33.990971	88.666283	-0.506470	
6.020		29.993256	-6.433993	201.317017	32.395447	89.172729	-0.954791	
6.030		30.487940	-6.912047	225.251389	33.583595	91.364777	-0.569027	
6.040		30.254160	-10.260840	258.184570	37.478214	93.864540	-0.357093	
6.050		30.331749	-7.735542	292.808838	36.247307	96.472992	-0.364955	
6.060		31.786930	-8.191543	318.285553	36.259933	99.836586	-0.567685	
6.070		34.391689	-5.517049	324.182739	33.070297	102.543251	-0.540542	
6.080		33.164780	-8.887107	338.612457	36.628178	101.900002	-0.744366	
6.090		34.210903	-7.713153	373.127228	36.634430	104.339775	-0.901149	
6.100		35.446270	-9.417283	424.322418	38.681030	108.480804	-0.960056	
6.110		37.679707	-10.627859	506.508728	40.793243	115.550163	-1.129536	
6.120		38.078346	-7.383142	596.756531	38.099556	121.535416	-0.886734	
6.130		38.877502	-8.080376	668.696411	39.911140	124.834854	-0.946671	
6.140		39.023499	-10.101050	693.219727	41.764290	124.523140	-0.687621	
6.150		37.033901	-8.456974	699.522522	39.217918	121.536598	-0.220899	
6.160		37.216629	-9.435994	683.353699	37.734058	118.526627	-0.729076	
6.170		34.286606	-6.487584	647.410217	32.081387	113.044044	-0.721340	
6.180		35.359333	-6.206259	648.082275	27.200180	113.388969	-0.728413	
6.190		34.909363	-1.093961	665.167419	19.314924	112.593582	-0.633660	
6.200		35.150135	-2.779425	724.613281	17.107712	114.153198	-0.574977	
6.210		36.373360	-0.308194	794.572327	11.609980	117.356667	-0.787209	
6.220		36.967155	1.144236	870.805420	5.840010	118.716652	-1.124912	
6.230		35.180626	3.054932	944.220154	-0.493334	117.159065	-0.827585	
6.240		35.150230	5.423631	977.362549	-6.552891	115.107445	-0.498745	
6.250		33.523708	7.755065	972.100525	-12.480339	109.742287	0.015647	
6.260		33.313755	10.750127	977.159912	-18.776579	104.565117	0.343448	
6.270		28.794420	8.078115	987.894165	-18.372496	93.953552	0.280698	
6.280		25.862429	10.742220	1005.760986	-23.306675	83.810249	0.343025	
6.290		23.055500	10.148634	1049.656616	-24.809893	73.776237	0.588167	
6.300		16.197266	11.166658	1116.059204	-28.743399	56.641830	0.294003	
6.310		14.709088	11.364345	1160.960083	-31.153326	45.433949	-0.232851	
6.320		7.845918	17.387487	1186.485474	-40.529926	28.357897	-0.039404	
6.330		6.123979	14.564681	1203.941528	-40.608818	14.664773	-0.173188	
6.340		2.613094	18.900478	1245.304810	-48.363274	-0.462024	-0.026772	
6.350		-3.241016	14.644040	1298.100464	-44.511490	-17.109280	-0.130265	
6.360		-5.125202	15.778887	1346.651001	-48.288521	-28.068651	-0.040827	
6.370		-9.257784	12.728710	1407.061646	-46.958660	-39.101875	-0.206169	
6.380		-7.746658	18.586647	1444.068604	-55.247440	-42.372879	-0.650913	
6.390		-11.252187	18.432657	1470.829224	-57.019596	-49.434643	-0.601703	
6.400		-9.826268	19.754091	1512.657959	-61.256561	-49.668510	-0.460141	
6.410		-8.806835	21.220095	1556.879272	-65.788605	-47.689190	-0.509021	
6.420		-9.518647	18.970564	1609.175659	-64.779358	-48.344418	-0.572743	
6.430		-7.308905	19.292864	1653.188599	-64.822617	-46.174267	-0.750798	
6.440		-7.999289	18.748770	1664.887939	-64.437035	-46.129829	-0.764740	
6.450		-9.167693	18.486837	1657.167847	-63.251827	-47.874435	-0.573007	
6.460		-9.358305	20.574860	1669.429077	-66.530144	-48.659851	-1.045718	
6.470		-9.543763	20.787741	1695.194580	-69.598106	-48.270554	-1.002441	
6.480		-7.529051	19.226898	1724.350586	-71.501556	-44.439503	-0.847917	
6.490		-7.346880	23.348248	1765.067871	-77.905304	-43.844257	-0.471843	
6.500		-9.443969	20.752300	1797.010254	-75.568771	-46.075172	-0.497636	
6.510		-8.350122	23.422342	1815.330811	-79.369453	-45.510048	-0.631730	
6.520		-8.035636	21.862080	1816.464111	-78.727791	-44.208580	-1.148651	
6.530		-9.109985	25.444338	1812.194092	-84.099289	-43.714130	-1.276510	
6.540		-8.576117	24.835976	1796.694580	-84.138329	-42.278728	-1.196995	
6.550		-8.682755	24.286997	1770.376343	-83.940651	-41.268902	-0.910650	
6.560		-10.742761	24.557133	1776.847900	-84.463142	-43.607330	-0.987597	
6.570		-13.070805	25.006863	1778.914917	-86.422371	-46.423336	-0.661989	
6.580		-14.547433	24.721878	1775.379517	-87.686424	-50.614567	-0.666844	
6.590		-14.485709	23.970640	1757.156860	-86.825760	-53.349815	-0.867700	
6.600		-17.373087	24.109324	1741.825928	-85.868759	-60.488720	-1.065537	
6.610		-18.515806	21.620546	1720.766602	-81.216995	-66.103577	-1.013095	
6.620		-18.572062	24.407965	1706.534180	-82.990234	-69.762703	-1.096171	
6.630		-21.106873	23.590633	1693.636963	-80.302811	-77.209068	-1.454339	
6.640		-24.685705	24.015493	1690.460693	-79.213028	-86.337585	-1.761511	
6.650		-26.246317	20.903391	1662.497803	-73.886467	-95.235680	-2.003510	
6.660		-28.210472	22.459663	1627.906738	-73.052658	-104.107925	-2.054231	
6.670		-34.191235	20.782715	1605.869385	-67.541939	-116.881950	-2.194472	
6.680		-34.945282	19.210585	1600.919067	-62.769012	-123.973801	-2.286214	
6.690		-36.012131	18.432255	1607.596924	-58.814175	-129.816971	-2.547622	
6.700		-38.150463	16.574127	1617.221924	-54.916477	-135.015091	-2.558731	
6.710		-37.800453	17.760229	1600.288086	-54.440208	-135.186310	-2.320905	
6.720		-37.649727	14.310176	1559.830200	-47.947514	-133.727783	-2.314920	
6.730		-36.048367	17.515633	1530.027466	-48.511597	-129.801620	-2.405226	
6.740		-35.059307	12.462075	1498.175415	-40.465462	-125.211342	-2.658777	
6.750		-30.654333	14.696068	1477.157349	-40.134678	-115.942108	-2.833180	
6.760		-31.260023	10.643256	1484.135376	-33.373734	-112.441277	-2.982475	
6.770		-29.742210	12.539869	1500.027466	-34.342182	-106.495102	-2.892386	
6.780		-28.670521	10.582253	1509.622925	-30.778639	-101.550163	-2.934788	
6.790		-26.038286	11.195982	1494.637695	-30.603273	-94.663940	-2.724283	
6.800		-27.734667	11.151690	1459.295776	-30.109615	-92.302902	-2.539333	
6.810		-24.779470	12.076774	1408.204468	-30.917780	-84.634109	-2.270095	
6.820		-22.216543	11.976214	1365.882446	-30.355122	-76.480133	-1.915297	
6.830		-22.435497	10.464415	1346.120117	-27.613972	-72.500206	-1.667650	
6.840		-18.581041	10.855847	1349.711060	-26.799620	-63.913456	-1.718930	
6.850		-17.031040	8.499101	1364.859985	-21.887146	-57.754604	-1.501227	
6.860		-16.340933	7.978557	1376.817139	-17.186716	-53.924953	-1.356242	
6.870		-14.703427	7.227125	1368.498535	-12.723612	-49.728786	-1.155348	
6.880		-13.394097	6.966300	1321.700439	-9.944346	-45.704575	-0.943820	
6.890		-11.719192	5.010345	1258.210815	-4.568623	-40.948154	-0.857194	
6.900		-12.905924	7.177371	1198.902466	-4.933101	-40.288147	-0.899895	
6.910		-9.852859	3.695426	1159.982910	1.700352	-34.935066	-0.809750	
6.920		-10.615897	4.187132	1125.981934	4.347636	-34.672962	-0.811846	
6.930		-9.803661	2.120887	1125.718994	8.798207	-33.911003	-0.827469	
6.940		-9.212340	6.244419	1104.043823	5.219975	-33.932289	-0.931323	
6.950		-12.793989	4.531195	1097.253784	8.358036	-39.801594	-1.061108	
6.960		-13.848062	4.219742	1069.133423	10.940821	-45.623901	-1.176537	
6.970		-19.133251	4.272323	1049.917969	12.952351	-56.642662	-1.222750	
6.980		-19.914085	2.376714	1041.117188	18.033281	-63.348099	-1.288027	
6.990		-24.895210	-0.258980	1027.947388	23.371374	-73.844299	-1.360086	
7.000		-23.878153	-0.785877	997.179565	25.798506	-76.287964	-1.270995	
7.010		-27.069605	-2.594318	975.088684	30.220888	-81.939354	-1.503996	
7.020		-27.157871	-3.900745	930.590759	33.060143	-82.589767	-1.319602	
7.030		-27.035057	-2.377531	896.922119	31.755127	-81.909370	-1.139137	
7.040		-27.230495	-3.025424	868.233948	32.620277	-80.387787	-0.924076	
7.050		-25.970625	-2.403087	865.010437	31.365726	-78.247238	-0.704619	
7.060		-24.516373	-2.847525	875.213257	31.737537	-75.950142	-0.769271	
7.070		-25.667007	-1.828223	889.269226	30.334539	-77.154648	-0.879139	
7.080		-25.379210	-2.426433	896.234863	31.008099	-76.020851	-0.912487	
7.090		-22.886555	-1.641281	897.135254	30.022682	-71.543198	-1.072688	
7.100		-21.809652	-4.324683	879.118042	32.701740	-67.381798	-0.941905	
7.110		-20.386324	-2.817654	869.393677	32.108547	-62.770607	-0.973465	
7.120		-18.792236	-6.827716	872.835815	38.169331	-57.773952	-0.839377	
7.130		-16.900528	-5.007490	889.077393	38.228409	-53.054924	-0.580168	
7.140		-15.937265	-7.176648	924.367737	42.981865	-49.964020	-0.327163	
7.150		-14.866096	-6.963333	952.697388	45.809380	-46.404057	-0.097368	
7.160		-12.420600	-8.089005	947.636108	49.736259	-40.436741	0.309838	
7.170		-12.625421	-8.837606	922.441162	52.232922	-37.044201	0.610303	
7.180		-9.793140	-8.922333	900.502625	54.152073	-29.786922	0.816187	
7.190		-8.668123	-9.588416	884.833923	55.867180	-25.115053	0.816995	
7.200		-6.578826	-9.567946	878.832458	56.688656	-19.245340	0.916521	
7.210		-5.835196	-10.308067	889.934631	56.900276	-14.431803	0.954012	
7.220		-1.275042	-7.070896	903.208984	51.480122	-4.825558	0.988232	
7.230		-0.907913	-6.849507	927.605164	48.629261	-0.398629	0.872400	
7.240		1.499299	-4.497917	944.430420	43.278671	5.824951	1.098561	
7.250		3.065945	-7.273620	961.973877	44.628315	10.579681	1.188169	
7.260		4.265756	-1.893755	949.311523	36.495373	14.096721	1.140401	
7.270		5.700892	-4.256729	943.712891	36.939587	16.807905	1.130343	
7.280		4.180071	-0.000807	928.124512	30.511456	15.498026	1.211458	
7.290		5.073656	-2.712569	903.496887	32.629082	17.143673	1.391175	
7.300		2.438530	-0.340396	868.315369	28.795567	13.715721	1.301268	
7.310		1.426155	-2.057170	842.857056	28.909321	10.553186	0.988690	
7.320		-2.043789	0.568151	835.227478	23.305962	3.674879	0.873492	
7.330		-2.391740	0.039729	837.791443	21.127293	-1.777730	0.782113	
7.340		-6.204789	2.557594	854.610596	15.170539	-11.287087	0.673061	
7.350		-8.331826	3.227180	876.269226	11.548332	-18.604149	0.628914	
7.360		-11.640750	2.638959	910.502380	9.925101	-26.831659	0.435362	
7.370		-14.008365	5.370601	928.498718	5.253733	-33.456848	0.410193	
7.380		-13.953531	2.095946	936.005798	8.607640	-37.477585	0.104579	
7.390		-15.714825	3.995091	933.618286	6.335052	-43.293491	0.195526	
7.400		-16.764429	3.328162	941.509216	6.702371	-47.383465	0.096796	
7.410		-17.876520	4.871344	944.471130	3.552890	-50.707375	0.249334	
7.420		-16.477510	3.272106	959.016052	4.233234	-50.225559	0.153599	
7.430		-17.695793	5.487778	977.109558	0.999235	-52.549789	-0.014975	
7.440		-17.616760	1.511941	1010.250488	4.466208	-53.272308	0.056657	
7.450		-17.872524	4.296781	1036.826538	1.176376	-54.107933	0.300530	
7.460		-18.156853	1.123644	1064.541382	4.270401	-54.872894	0.645468	
7.470		-17.958433	4.480767	1088.845093	-1.234539	-56.094727	0.818701	
7.480		-17.284983	3.153101	1125.392090	-1.576546	-56.406185	0.789071	
7.490		-17.685032	4.267486	1157.663452	-4.559519	-56.702526	0.451365	
7.500		-16.391668	3.225360	1192.017578	-5.286998	-54.753315	0.125459	
7.510		-17.686491	3.187232	1223.304443	-6.594775	-55.125900	0.097454	
7.520		-17.154396	4.524556	1271.301147	-9.184339	-53.155231	0.060481	
7.530		-16.413961	4.159431	1330.274658	-10.468712	-50.605118	0.322190	
7.540		-15.594947	7.446112	1362.421875	-17.123022	-47.273666	0.403036	
7.550		-13.287208	6.116526	1381.703857	-18.093679	-41.991913	0.648542	
7.560		-12.764806	9.965381	1375.660645	-24.960093	-38.386295	0.986054	
7.570		-8.548749	10.192203	1378.307983	-27.642395	-31.010979	1.132956	
7.580		-9.934620	10.941428	1383.432617	-31.339962	-30.609676	1.196238	
7.590		-5.263595	10.907146	1395.267212	-34.455654	-22.831024	1.014753	
7.600		-6.680082	13.595734	1429.312500	-41.151157	-22.303137	0.855468	
7.610		-5.584256	13.899597	1469.915771	-45.457409	-18.932644	0.712036	
7.620		-4.483466	16.184563	1498.352905	-52.354298	-16.092278	0.792805	
7.630		-3.002066	17.275742	1502.727905	-57.532970	-13.204238	0.896659	
7.640		-1.597264	19.327461	1494.095581	-62.336906	-11.729894	0.987374	
7.650		-3.009455	19.752439	1481.182129	-63.761452	-14.349302	1.039910	
7.660		-2.911281	18.817410	1494.738403	-61.263920	-16.532591	0.828717	
7.670		-5.762894	17.390745	1507.553711	-57.878147	-23.084179	0.683084	
7.680		-7.936161	17.457762	1523.559692	-56.834866	-28.726488	0.514425	
7.690		-8.353556	17.298117	1513.927490	-56.073494	-32.402206	0.454560	
7.700		-9.554254	16.240343	1499.656128	-53.358246	-35.682693	0.367531	
7.710		-10.605793	15.632374	1476.920654	-49.086815	-39.624550	0.095698	
7.720		-11.632641	11.994337	1458.286255	-40.976604	-44.224205	-0.194889	
7.730		-12.525202	11.045286	1463.084106	-35.863049	-48.916229	-0.598843	
7.740		-14.631961	8.695685	1466.747192	-29.716997	-54.286705	-0.795320	
7.750		-16.636715	8.380586	1455.159668	-26.520210	-58.566841	-0.938310	
7.760		-17.461124	6.736768	1431.912354	-22.181265	-60.890106	-0.997435	
7.770		-17.130571	8.824691	1404.753296	-21.545343	-60.471214	-1.059582	
7.780		-19.385189	5.628024	1382.386841	-14.294896	-63.321762	-1.047664	
7.790		-16.372194	5.397065	1354.119507	-10.523973	-60.299995	-0.971483	
7.800		-18.968519	2.378315	1341.192261	-3.483404	-63.118011	-0.891808	
7.810		-17.002644	3.821892	1338.805542	-1.689360	-59.888153	-0.670120	
7.820		-16.755369	2.803934	1327.505615	1.839846	-57.988197	-0.628015	
7.830		-14.586642	3.520381	1309.829224	2.201669	-53.315647	-0.627292	
7.840		-15.924324	2.177050	1266.348511	4.444574	-53.479076	-0.706115	
7.850		-15.227611	2.407382	1208.929810	5.578548	-51.957287	-0.768624	
7.860		-13.065631	4.356625	1164.869629	3.831017	-48.392132	-0.722447	
7.870		-15.085778	3.196151	1136.302490	4.604302	-49.719154	-0.987997	
7.880		-14.053351	5.269091	1122.182983	0.816419	-46.543819	-1.061770	
7.890		-13.876921	6.690402	1116.939087	-2.301963	-44.004196	-0.990463	
7.900		-11.324638	6.686695	1100.268066	-2.978324	-38.419342	-1.046957	
7.910		-11.252455	7.178526	1085.282715	-4.063951	-34.750813	-0.866173	
7.920		-7.462991	9.359610	1066.575684	-7.507819	-25.953070	-0.664045	
7.930		-7.604943	8.829975	1047.723267	-7.564042	-22.541378	-0.489602	
7.940		-6.659313	9.225934	1017.709412	-9.088239	-19.014568	-0.414412	
7.950		-6.511368	8.746548	994.697876	-9.032835	-18.019678	-0.599480	
7.960		-6.755867	8.543851	986.403870	-9.127754	-17.342785	-0.773690	
7.970		-4.496431	7.994557	999.185791	-8.903506	-12.789547	-0.653433	
7.980		-3.381333	7.323181	993.812683	-8.006135	-8.906487	-0.432017	
7.990		-1.139054	6.598357	977.552979	-5.868209	-3.327494	-0.207346	
8.000		0.008945	6.316794	954.917542	-4.192431	0.723792	-0.168855	
8.010		1.856209	6.413615	936.655884	-2.901646	5.166448	-0.084095	
8.020		0.967241	5.107789	932.532410	0.710967	6.452302	-0.033634	
8.030		3.917783	3.249068	934.453064	4.995971	11.699724	-0.170878	
8.040		1.695050	1.499657	959.735779	9.723963	10.029638	-0.291609	
8.050		2.219388	0.043775	977.028503	14.615842	10.816092	-0.352442	
8.060		1.200953	-2.593428	1002.143982	21.103724	9.718875	-0.262877	
8.070		1.283059	-1.454711	1001.169067	22.932951	9.575659	-0.230145	
8.080		-0.920748	-4.734322	986.733765	29.403742	6.632298	-0.163153	
8.090		-0.544796	-3.937799	957.137573	30.154724	6.922651	-0.134231	
8.100		-0.418705	-4.892529	925.239441	32.585579	7.540913	0.106879	
8.110		-0.996434	-4.734768	914.099731	33.312527	6.692774	0.130013	
8.120		-1.591155	-7.125008	940.495361	36.638748	5.237799	0.249013	
8.130		-4.271441	-5.633547	958.659607	35.110115	1.210427	0.244533	
8.140		-1.003016	-6.716725	956.713989	35.475578	4.197462	0.257237	
8.150		-4.762396	-3.235450	943.150330	29.973438	-1.218830	0.189588	
8.160		-1.683794	-2.843431	923.363708	27.216084	1.487062	0.069735	
8.170		-4.986832	-0.909026	912.443542	21.186161	-2.724244	0.156446	
8.180		-2.435258	0.979373	879.485840	15.565804	-0.334056	0.151860	
8.190		-2.717091	0.054784	875.084045	13.603927	0.090758	0.112513	
8.200		-2.294858	3.920893	886.922974	5.383685	0.857472	0.016796	
8.210		-1.471568	5.011862	916.322632	-0.231967	1.493083	0.097180	
8.220		-4.383614	6.582961	930.732727	-5.475646	-2.631990	0.160204	
8.230		-1.992450	5.964705	937.097412	-7.655610	-0.818824	0.473184	
8.240		-4.311044	9.401077	936.768005	-13.162663	-5.247013	0.484854	
8.250		-5.518337	6.278312	941.116272	-10.351268	-8.638004	0.549183	
8.260		-7.178336	8.999952	950.072449	-14.248104	-12.880844	0.403754	
8.270		-5.715051	7.205006	962.294434	-13.319203	-12.890756	0.383623	
8.280		-7.016143	11.086951	982.947937	-19.356810	-15.472934	0.327418	
8.290		-6.999391	8.309232	1005.626404	-17.887739	-15.664074	0.383145	
8.300		-3.859767	11.494650	1029.017090	-22.888971	-10.789286	0.382701	
8.310		-3.488200	9.404453	1060.232422	-21.570934	-7.848711	0.621005	
8.320		-1.839983	10.081646	1077.927856	-22.636023	-3.752249	0.694435	
8.330		-1.507652	8.446285	1103.229126	-20.395117	-1.204896	0.844750	
8.340		1.426905	8.333637	1122.132568	-18.832073	3.999831	0.948745	
8.350		-0.636664	5.082072	1162.268311	-12.905372	3.373959	0.861652	
8.360		2.012399	5.860507	1192.060181	-12.093906	7.850301	0.948234	
8.370		0.887557	3.300936	1219.871582	-7.875155	7.437058	0.950398	
8.380		1.463326	4.147409	1227.690063	-7.891769	8.489573	1.028713	
8.390		1.837799	4.937579	1232.075317	-8.774156	8.253019	1.214660	
8.400		-0.184084	3.766712	1239.812866	-6.989058	4.743828	1.093894	
8.410		0.139716	3.561995	1255.792847	-6.172571	3.647993	0.989425	
8.420		-2.937009	1.973132	1278.970459	-3.295499	-2.275126	1.022622	
8.430		-3.541943	2.818619	1292.761597	-3.986979	-6.670579	1.099085	
8.440		-5.517269	3.272313	1300.354370	-5.012787	-13.367443	1.170277	
8.450		-8.526128	2.568775	1277.358398	-4.212735	-22.301060	1.031964	
8.460		-10.513827	3.793898	1252.015869	-5.647832	-29.039093	0.851913	
8.470		-11.827754	4.523788	1240.166382	-6.979081	-34.408554	0.682413	
8.480		-13.115533	5.478385	1263.624634	-8.956703	-38.730614	0.537288	
8.490		-12.853310	6.930623	1291.430420	-11.884387	-39.907478	0.553915	
8.500		-12.602953	7.351342	1304.810791	-13.546480	-41.119221	0.459666	
8.510		-12.972358	6.645298	1292.072632	-13.361777	-43.739864	0.432242	
8.520		-14.866878	8.441155	1260.190308	-15.963371	-49.018341	0.246082	
8.530		-15.297274	7.266300	1217.738770	-14.687865	-53.574707	0.132787	
8.540		-17.407522	8.994817	1199.320557	-16.049995	-60.871513	-0.069702	
8.550		-20.924028	6.898132	1202.114502	-13.441213	-70.047493	-0.466570	
8.560		-21.023043	9.967405	1206.454224	-17.374758	-74.333389	-0.641902	
8.570		-24.583132	8.168097	1243.933350	-15.774274	-81.636955	-0.773618	
8.580		-23.219286	10.620454	1271.667114	-19.279560	-82.136917	-0.756710	
8.590		-25.649229	9.713820	1287.004028	-18.063002	-86.284950	-0.779317	
8.600		-22.327436	8.644828	1272.519775	-15.694684	-82.861580	-0.870054	
8.610		-24.671513	7.114849	1260.457031	-11.690422	-84.817055	-1.090740	
8.620		-22.170221	6.358033	1254.227539	-8.646694	-80.300583	-1.046267	
8.630		-22.913321	5.592348	1247.247681	-6.057572	-78.483444	-1.161503	
8.640		-20.166750	4.807359	1275.524048	-3.715656	-72.487137	-1.079053	
8.650		-20.262205	3.757285	1310.706299	-0.980933	-70.352257	-1.087984	
8.660		-20.026567	3.963350	1316.949219	0.112891	-67.209686	-0.775184	
8.670		-17.350494	2.061449	1315.961060	3.906255	-60.240856	-0.786989	
8.680		-16.492756	3.280805	1317.820557	3.646048	-55.406090	-0.633900	
8.690		-14.192671	2.022836	1323.248657	5.841938	-49.471554	-0.619476	
8.700		-13.092575	1.396255	1318.953979	7.701085	-45.966213	-0.577293	
8.710		-12.474089	1.919726	1311.776001	8.139323	-44.499672	-0.527598	
8.720		-15.457274	0.706915	1295.994751	10.485868	-49.207085	-0.637440	
8.730		-15.974744	1.069301	1287.269165	11.383642	-52.407158	-0.671670	
8.740		-17.533634	1.087749	1272.910767	12.518629	-57.479309	-0.738900	
8.750		-16.647326	0.181928	1268.384033	14.699874	-58.634750	-0.756449	
8.760		-17.900328	-1.185023	1255.003174	17.106512	-61.016010	-0.793404	
8.770		-16.208981	-0.304717	1262.582764	16.396648	-58.330814	-0.821909	
8.780		-15.366556	-0.203067	1286.389893	16.208321	-55.402325	-0.705456	
8.790		-12.527737	1.683074	1301.455566	13.124567	-49.318703	-0.605622	
8.800		-12.756610	1.377210	1277.101318	12.283681	-47.070107	-0.620488	
8.810		-11.376824	2.679209	1224.033081	10.313034	-44.260460	-0.816730	
8.820		-13.798700	2.443068	1150.045654	10.510528	-46.890995	-1.139104	
8.830		-13.991969	2.247336	1095.228271	10.403065	-47.843227	-1.510207	
8.840		-13.529063	1.043996	1083.563232	11.131350	-47.827045	-1.626296	
8.850		-15.268762	3.132744	1101.997314	7.941081	-50.871185	-1.736951	
8.860		-15.008775	3.187269	1124.192505	6.756690	-50.914192	-1.565400	
8.870		-16.018433	3.808007	1133.559570	5.053262	-51.765652	-1.469248	
8.880		-15.009213	5.489021	1127.081177	2.346719	-50.322006	-1.368240	
8.890		-16.313522	3.889704	1116.150024	3.809059	-51.191223	-1.349909	
8.900		-14.390782	4.748515	1077.184570	1.967956	-47.656616	-1.313156	
8.910		-13.487389	4.568899	1042.294434	1.691536	-44.083172	-1.112651	
8.920		-12.691154	3.755299	1036.703125	2.640044	-40.662525	-0.901062	
8.930		-11.197035	3.379982	1046.441406	2.814928	-35.819263	-0.711665	
8.940		-9.109075	3.238598	1066.527222	2.359654	-28.924860	-0.650749	
8.950		-6.056244	4.835845	1076.398560	-0.273866	-19.357800	-0.518230	
8.960		-2.927887	5.937393	1053.588379	-2.590182	-8.070375	-0.505610	
8.970		2.718785	5.301715	1031.882202	-2.239460	6.833381	-0.484925	
8.980		4.031774	4.394401	1013.921448	-1.387304	16.261429	-0.708485	
8.990		8.867968	4.606137	1020.476013	-1.671641	28.982050	-0.733292	
9.000		9.798472	3.085673	1031.829590	-0.002731	36.176304	-0.652560	
9.010		13.063866	3.594925	1039.015259	-0.849127	44.372414	-0.603285	
9.020		11.841312	3.212215	1033.368286	-0.761680	45.772507	-0.525320	
9.030		11.890423	3.716625	1023.363647	-1.604471	47.023640	-0.422422	
9.040		13.165119	3.933815	1005.457825	-2.389872	49.424278	-0.235520	
9.050		10.835219	3.133385	997.549927	-1.975594	48.571957	-0.184275	
9.060		14.796693	3.331142	1005.141602	-3.388468	56.296398	-0.088784	
9.070		14.254095	2.727061	1024.955078	-4.150042	59.579212	-0.178982	
9.080		18.335163	3.600358	1034.917969	-6.539087	68.869209	-0.240816	
9.090		18.377024	5.908636	1014.771851	-11.615762	73.487244	-0.229293	
9.100		21.050547	5.661394	973.509277	-13.751753	80.763161	-0.287549	
9.110		23.947649	7.787385	928.703003	-17.770771	87.784500	-0.290426	
9.120		24.158319	6.691380	899.917847	-16.792625	92.006706	-0.436497	
9.130		27.378851	6.166142	875.507568	-16.064402	97.635887	-0.403217	
9.140		27.334026	4.522195	870.661072	-14.358335	99.763489	-0.375026	
9.150		28.686026	5.123282	878.329773	-14.970782	102.636528	-0.302825	
9.160		27.853203	6.415376	882.096924	-16.534641	102.492432	-0.126510	
9.170		27.020260	6.495383	878.137207	-17.005693	101.021561	0.034578	
9.180		26.084038	7.284770	858.318848	-17.978727	98.797035	0.220388	
9.190		26.096029	6.952638	836.831787	-17.222317	97.448013	0.400345	
9.200		25.956535	8.062394	816.346924	-17.611500	95.772850	0.529378	
9.210		25.160547	6.785631	809.611816	-14.529582	93.518120	0.432864	
9.220		24.949091	4.696774	803.866699	-10.419318	91.668732	0.292590	
9.230		24.205076	4.028637	801.880798	-8.263057	89.671478	0.124839	
9.240		23.720341	4.117403	788.992432	-7.189126	88.054405	0.007727	
9.250		25.053196	4.489820	781.959290	-7.112165	89.105553	-0.055212	
9.260		24.044651	5.155840	774.809021	-7.945932	88.603973	-0.040105	
9.270		25.262554	5.301264	769.194946	-8.169975	90.807114	-0.056322	
9.280		25.594681	6.033601	765.495789	-9.079304	92.959816	-0.008936	
9.290		26.553953	5.673719	753.704163	-8.393358	95.058411	-0.029193	
9.300		26.815626	4.769469	741.551636	-7.198596	96.336678	0.153772	
9.310		27.741341	6.643091	738.135986	-8.999269	98.107582	0.328501	
9.320		28.313810	4.642048	735.608032	-6.737234	98.963608	0.464807	
9.330		28.105433	6.063586	736.297180	-8.008428	98.686356	0.438863	
9.340		28.679316	4.421701	739.015198	-6.285442	99.221939	0.431708	
9.350		28.602386	6.343145	745.283569	-8.761509	99.650589	0.474937	
9.360		28.339890	5.771636	763.151001	-8.285084	100.128983	0.428462	
9.370		28.056995	5.463280	778.858887	-8.285372	100.102341	0.280950	
9.380		27.531786	6.342551	782.638123	-9.725242	98.844826	0.228089	
9.390		25.847277	5.281901	779.333496	-9.108861	95.959290	0.300987	
9.400		24.925850	7.611903	772.361023	-11.946065	93.694870	0.480218	
9.410		25.087254	6.540026	759.985657	-10.288943	92.462303	0.514844	
9.420		26.138371	7.062375	761.770874	-9.693509	92.481918	0.520959	
9.430		25.069290	4.908658	767.889709	-5.541253	90.741997	0.623852	
9.440		26.038204	3.394776	778.441345	-1.387344	91.387566	0.756506	
9.450		27.179680	2.221179	788.187012	2.465308	92.237907	0.831599	
9.460		27.045223	1.532550	817.608398	5.753002	92.533783	0.845504	
9.470		26.707628	1.093421	851.870056	8.288066	92.351273	0.916114	
9.480		26.734856	1.943157	871.489807	9.451898	91.296021	0.967354	
9.490		26.832577	-1.098599	872.544312	15.608573	88.261787	0.769689	
9.500		23.502913	-0.964776	875.502319	18.092710	81.798340	0.741795	
9.510		24.782610	-2.829126	877.468567	22.199568	80.294434	0.644684	
9.520		23.277018	-3.344114	880.299377	25.008396	76.680649	0.554366	
9.530		22.888340	-3.932211	888.898743	27.539280	75.121399	0.475819	
9.540		22.905544	-3.192812	895.126160	28.206982	74.638367	0.398480	
9.550		23.041414	-2.133189	902.559814	27.677816	74.980530	0.381735	
9.560		23.944889	-3.522719	905.280640	30.050110	76.153519	0.218398	
9.570		23.170111	-2.354278	900.438904	29.860487	75.939651	0.232805	
9.580		24.205944	-4.224219	882.995850	32.702381	76.300262	0.223381	
9.590		22.746569	-4.769814	875.253906	33.850609	74.037247	0.260945	
9.600		22.388803	-4.657297	873.453552	33.241474	72.842903	0.309006	
9.610		21.547668	-2.649360	882.754944	29.626953	71.919685	0.288051	
9.620		21.692059	-2.804856	904.430359	27.462423	72.530151	0.354475	
9.630		21.203899	0.108516	917.112976	22.164717	72.418068	0.275646	
9.640		22.343758	0.456478	901.944519	20.304287	73.424362	0.170076	
9.650		22.346750	0.245662	875.041138	19.671244	72.935867	0.250582	
9.660		22.341190	0.502329	859.459290	19.108099	72.314545	0.184830	
9.670		21.609673	-0.201104	855.836060	19.924751	70.765289	0.199388	
9.680		21.900999	1.471501	849.943176	18.329884	69.899666	0.051818	
9.690		20.440552	-1.437120	850.931641	21.938639	67.405762	0.040028	
9.700		19.673578	-0.860237	855.788025	21.873648	65.970200	0.006402	
9.710		19.108120	-0.976578	857.858948	22.825172	64.734360	-0.101654	
9.720		18.747131	-0.917448	856.930664	23.874535	64.104767	-0.107307	
9.730		19.348812	-2.272072	854.066711	26.781612	64.248032	-0.266531	
9.740		18.760712	-2.206631	856.621948	28.369987	63.058186	-0.281551	
9.750		17.925447	-4.365381	866.170105	33.096703	60.480652	-0.342183	
9.760		16.683765	-4.371789	888.460388	35.422771	56.765919	-0.520365	
9.770		14.782546	-5.279599	902.891724	38.912346	51.568481	-0.638832	
9.780		13.367290	-7.106058	898.488342	43.463520	46.098717	-0.739278	
9.790		10.718810	-8.510443	887.983215	47.738216	38.332668	-0.695364	
9.800		6.598096	-11.788898	878.130188	54.502743	28.323629	-0.788592	
9.810		5.826747	-11.019312	884.522217	55.903790	22.155565	-0.695609	
9.820		1.321297	-12.858494	897.996094	58.904690	12.152048	-0.575947	
9.830		1.638917	-9.809269	912.423035	54.866352	8.768440	-0.327751	
9.840		-1.148023	-10.531966	919.074341	54.901096	2.864120	-0.254405	
9.850		-0.444125	-8.897865	916.078186	52.481018	2.015196	-0.268087	
9.860		-0.188032	-8.821668	902.984619	51.254250	1.935073	-0.299379	
9.870		-0.279865	-6.679425	893.224609	47.368382	1.520473	-0.296524	
9.880		-0.272822	-8.574819	880.550720	48.353516	1.676893	-0.435405	
9.890		0.102685	-6.237719	885.480103	44.017593	2.738290	-0.524293	
9.900		0.436183	-5.889931	907.772888	41.308258	3.516718	-0.751381	
9.910		0.813521	-3.399003	924.568481	35.526627	4.078476	-0.858456	
9.920		2.298867	-2.001771	941.535400	30.519085	6.447475	-0.858350	
9.930		1.891644	-1.040439	945.841553	26.325268	6.525838	-0.935272	
9.940		3.170379	0.873845	949.268555	21.091864	9.040421	-0.818880	
9.950		3.096049	1.438435	956.007751	18.007078	10.050832	-0.787804	
9.960		4.113187	2.535836	961.059998	14.853320	12.449655	-0.671743	
9.970		4.078024	1.345193	970.834167	14.224753	13.587887	-0.506136	
9.980		5.376656	3.474665	971.918579	9.976242	15.969626	-0.512344	
9.990		5.520820	3.083649	975.061340	9.048519	17.500788	-0.501809	
10.000		5.653959	5.306802	981.530579	5.024123	19.426445	-0.577116	
10.010		7.955847	2.229742	1002.310242	6.982061	24.617924	-0.625495	
10.020		8.056857	4.839087	1030.053101	2.366649	27.416218	-0.797180	
10.030		9.664056	2.300189	1060.499634	3.900246	31.874063	-0.879940	
10.040		9.296715	4.863713	1095.701294	-0.472637	34.139668	-0.729881	
10.050		10.808910	3.744103	1120.997314	-0.641219	38.192364	-0.477546	
10.060		11.137682	4.826451	1130.580566	-3.000644	40.434090	-0.227103	
10.070		11.829148	3.994543	1124.530762	-2.423419	42.383068	-0.003565	
10.080		11.954532	5.114348	1101.130737	-3.032925	42.713829	0.127953	
10.090		11.780967	2.590059	1089.845581	0.994761	41.689911	0.161385	
10.100		12.042309	2.572010	1089.297974	2.189595	40.172939	0.036058	
10.110		9.898676	0.890411	1104.820801	4.706059	35.815464	-0.120983	
10.120		11.289494	1.734759	1130.319946	3.298672	36.395840	-0.117171	
10.130		9.270586	2.162519	1153.088623	1.655759	33.877251	-0.072031	
10.140		10.903412	3.190036	1169.796875	-1.010255	36.469131	0.006194	
10.150		10.816230	4.662785	1169.999512	-4.348016	36.812969	-0.039112	
10.160		10.456094	4.193177	1156.925781	-5.058254	36.608391	0.055157	
10.170		10.057956	3.807292	1143.186890	-5.419065	35.767807	0.077016	
10.180		9.584697	3.445705	1138.480957	-6.196175	35.223862	0.140577	
10.190		10.040875	5.124832	1135.078125	-10.001425	36.657272	0.105067	
10.200		9.798758	5.162063	1129.577271	-12.030622	37.928871	0.162443	
10.210		11.307590	7.217443	1131.318481	-16.184601	41.658180	0.260927	
10.220		11.755065	7.337158	1126.375244	-18.300320	44.456749	0.203978	
10.230		13.571508	9.406634	1096.528198	-23.263941	49.200195	0.287949	
10.240		14.750598	9.881050	1066.512207	-26.081240	52.571205	0.217627	
10.250		14.376071	10.241656	1059.146606	-28.745138	53.776962	0.255207	
10.260		14.397795	11.076995	1065.031860	-32.600311	55.003494	0.254889	
10.270		13.825063	12.796124	1058.149414	-37.803532	54.928337	0.287903	
10.280		14.281672	12.834007	1052.101074	-41.523186	56.206951	0.489928	
10.290		14.418192	17.699120	1038.092651	-49.799702	57.483444	0.719131	
10.300		15.628609	16.007988	1025.770874	-49.315502	60.439259	0.868768	
10.310		15.933319	17.470186	1016.346558	-50.944168	62.530788	0.895955	
10.320		17.445147	15.394325	1022.912231	-47.886059	66.352608	0.843649	
10.330		17.025829	14.690487	1030.952759	-45.975906	68.241623	0.785403	
10.340		18.697592	14.143657	1038.432373	-44.176605	72.188606	0.698557	
10.350		19.608242	13.916014	1038.027832	-42.488804	74.915749	0.697508	
10.360		19.605518	13.784484	1020.905029	-40.779743	75.707870	0.650302	
10.370		20.648443	13.183927	983.491272	-38.269382	76.576485	0.651288	
10.380		19.419399	11.150460	952.569580	-34.113468	74.888702	0.584228	
10.390		20.275330	10.584314	944.946472	-31.469414	75.815163	0.566955	
10.400		20.271778	8.910289	962.269043	-28.285395	76.727089	0.586758	
10.410		21.010235	9.381564	1003.710327	-27.556818	79.287476	0.640294	
10.420		22.176237	8.498105	1040.684937	-24.874493	82.390739	0.651998	
10.430		22.970078	8.182265	1048.057373	-22.464233	84.234917	0.622157	
10.440		23.641199	7.361740	1023.146729	-19.234758	85.455109	0.548412	
10.450		23.759241	5.932458	987.643494	-15.277606	85.791054	0.518134	
10.460		22.882292	5.259751	946.367004	-12.305595	84.804543	0.341370	
10.470		24.518246	3.332934	918.325012	-8.183104	86.527458	0.370536	
10.480		22.300409	3.455167	917.824646	-7.021546	84.239433	0.218375	
10.490		22.370724	3.184969	928.572876	-6.462902	84.547447	0.265491	
10.500		22.756025	5.144901	932.142273	-9.156789	85.143707	0.346932	
10.510		22.764868	5.495018	919.698486	-10.036418	85.196472	0.380035	
10.520		23.390530	6.690475	895.160767	-11.275675	85.678673	0.360769	
10.530		23.225918	5.956878	876.727600	-10.486699	85.414841	0.328237	
10.540		23.542694	5.827779	859.041870	-9.993689	85.567886	0.248843	
10.550		23.459126	6.290671	848.067871	-10.040992	85.215401	0.220443	
10.560		22.917301	5.191520	838.970642	-7.954980	84.065331	0.227691	
10.570		22.154827	5.614511	828.200195	-7.360189	82.290581	0.213949	
10.580		21.693695	5.268652	817.368042	-5.990629	80.732941	0.221352	
10.590		21.450287	5.264057	806.513672	-4.847760	79.289337	0.311960	
10.600		19.764927	5.361225	798.964722	-3.407752	76.284698	0.279204	
10.610		20.332485	3.753858	796.965210	0.454025	75.740898	0.291963	
10.620		18.900549	3.394544	793.356750	3.418601	72.883255	0.282027	
10.630		18.606909	1.286307	788.843933	8.480000	70.629227	0.175867	
10.640		17.131922	0.299869	771.672729	12.467578	66.415993	0.145613	
10.650		15.655931	-0.558649	749.775940	16.535259	61.459362	0.125240	
10.660		14.662073	-1.594320	741.168640	21.526941	56.778072	0.126119	
10.670		11.961052	-4.190439	744.000793	28.751139	49.682251	0.033610	
10.680		12.278392	-5.460954	769.979675	34.843674	46.045731	0.038780	
10.690		8.988803	-7.780065	793.455139	41.525303	38.963230	0.027953	
10.700		9.410271	-7.466648	813.978271	44.369530	36.188423	0.107017	
10.710		7.352804	-8.843937	828.207764	48.979256	31.521557	0.168042	
10.720		7.762693	-8.815263	828.376892	51.264343	30.012665	0.252436	
10.730		6.419423	-9.850527	819.480042	54.757191	26.852459	0.292217	
10.740		6.899285	-10.067888	804.456238	57.318817	25.756989	0.419735	
10.750		6.324786	-11.576860	789.235046	61.630428	23.118717	0.376180	
10.760		6.420789	-12.665974	787.717407	65.639229	21.403048	0.482729	
10.770		5.808248	-13.711637	791.251160	69.248878	19.012072	0.449019	
10.780		5.055973	-15.329770	800.309082	73.114914	16.476830	0.370657	
10.790		4.966942	-15.697854	816.517029	75.062355	15.130990	0.300650	
10.800		5.133287	-15.230818	829.520996	75.201469	14.722909	0.452778	
10.810		5.377834	-14.478876	840.222412	74.269073	15.044065	0.488551	
10.820		5.840187	-12.981656	849.460083	72.219391	15.723322	0.649718	
10.830		6.591771	-13.047990	857.774841	72.225273	16.662642	0.680282	
10.840		6.059570	-13.058700	869.487854	72.675804	16.009466	0.637531	
10.850		6.587662	-13.865848	868.339722	73.579857	15.964161	0.591431	
10.860		5.526848	-12.680774	861.249146	71.998833	14.397923	0.472087	
10.870		6.547640	-12.910419	857.085754	71.624252	15.340145	0.493186	
10.880		7.076657	-11.556046	856.592346	69.729576	16.175806	0.462726	
10.890		8.005996	-12.118790	861.824036	70.505653	17.946220	0.371277	
10.900		8.801406	-12.488343	873.233643	70.894630	20.319902	0.336201	
10.910		10.037042	-10.749720	891.840210	68.775215	23.870314	0.385228	
10.920		11.306184	-11.515774	908.473145	69.169212	26.999523	0.379416	
10.930		11.140574	-10.166132	917.597107	67.103561	28.022312	0.420947	
10.940		11.258578	-10.707153	916.423706	67.111076	28.653351	0.441706	
10.950		10.837687	-10.513449	902.480286	66.127541	27.957315	0.334115	
10.960		10.681599	-9.749932	885.463867	64.352455	27.196165	0.266190	
10.970		9.973690	-9.387684	877.182129	63.218670	25.687750	0.210625	
10.980		8.566851	-9.482623	872.436707	62.981869	23.151737	0.170717	
10.990		7.705025	-10.120781	873.041382	63.760723	20.874689	0.035987	
11.000		7.274349	-10.398026	881.009949	64.151260	19.387699	-0.056380	
11.010		6.223822	-10.757632	900.570923	64.444603	17.193583	-0.111261	
11.020		5.701968	-10.121785	911.507568	63.091270	15.313258	-0.205210	
11.030		4.938867	-10.203689	911.581787	62.165901	13.011997	-0.232836	
11.040		3.119727	-9.681791	907.368469	60.795692	9.180956	-0.280531	
11.050		2.104994	-10.223396	901.943848	60.350582	5.648819	-0.303233	
11.060		-0.546758	-9.801117	891.117371	58.545750	0.440073	-0.262819	
11.070		-0.485573	-9.340553	887.563965	56.496044	-1.847223	-0.280894	
11.080		-2.812911	-8.530865	896.296387	53.537361	-6.554099	-0.259613	
11.090		-2.340795	-8.124269	902.753296	51.007275	-7.622564	-0.259159	
11.100		-4.683086	-6.789413	900.471497	46.992241	-11.350924	-0.250322	
11.110		-3.263498	-5.807394	904.640930	43.372425	-11.189563	-0.333559	
11.120		-4.798149	-5.689665	926.857178	41.138359	-14.316593	-0.563307	
11.130		-4.160994	-4.789621	958.960266	37.940693	-14.753671	-0.690348	
11.140		-4.632678	-4.579944	989.178894	35.139816	-16.309437	-0.758797	
11.150		-4.957046	-4.232790	1007.850525	31.422279	-17.299076	-0.858703	
11.160		-5.468239	-3.401374	1023.304810	27.210236	-17.923100	-0.801109	
11.170		-5.764770	-1.068074	1028.090210	20.629276	-17.879677	-0.738957	
11.180		-4.692506	0.070857	1034.189575	14.963729	-15.231029	-0.630925	
11.190		-3.946332	2.440227	1037.466187	7.805891	-11.921052	-0.559172	
11.200		-2.367209	3.062779	1053.495850	2.760165	-6.976492	-0.456942	
11.210		-0.665887	3.568298	1077.267944	-1.540269	-1.592605	-0.466704	
11.220		0.397704	5.333627	1111.491943	-7.686551	3.145794	-0.323657	
11.230		2.704769	7.542691	1141.962891	-14.961503	9.800057	-0.239845	
11.240		3.856275	8.564528	1161.172241	-20.778374	15.227861	-0.038508	
11.250		6.230684	10.809058	1167.828979	-28.140060	22.183151	0.136884	
11.260		6.509189	11.382407	1176.146729	-33.160637	26.448408	0.266287	
11.270		8.550746	13.888319	1193.336426	-40.661739	32.473927	0.476026	
11.280		10.585753	15.837246	1223.579102	-47.676270	38.484715	0.653121	
11.290		11.861100	17.080448	1251.566528	-54.015728	43.264095	0.712375	
11.300		13.978889	19.363478	1276.840820	-61.451183	48.952240	0.790298	
11.310		14.582320	21.009903	1304.251831	-67.777679	52.785156	0.766788	
11.320		16.430229	23.957382	1321.041138	-75.047058	57.770077	0.898345	
11.330		17.526640	23.636478	1324.654419	-78.043564	61.599041	0.993072	
11.340		19.216793	25.897131	1312.534058	-83.333260	65.570213	0.983968	
11.350		20.099670	25.099270	1316.729248	-84.861259	68.304184	1.071141	
11.360		19.712276	25.826754	1336.089233	-87.593460	69.013771	1.126155	
11.370		20.848787	25.546644	1362.334229	-89.105972	71.154785	1.250221	
11.380		19.555603	26.765127	1383.454346	-92.767937	69.972206	1.379465	
11.390		19.971144	28.421900	1394.023438	-97.440132	70.159119	1.586278	
11.400		18.270903	28.698511	1393.511475	-100.817093	67.616554	1.652366	
11.410		19.435066	30.174997	1390.502075	-104.330811	67.815292	1.774976	
11.420		17.218063	31.562208	1388.553223	-107.825928	64.364731	1.702654	
11.430		16.140688	31.187492	1383.852417	-109.661583	61.475193	1.777733	
11.440		16.382843	32.939396	1379.706421	-113.137352	59.629246	1.659052	
11.450		14.546453	33.053387	1379.715088	-114.850685	55.658882	1.690234	
11.460		13.230736	34.546669	1376.518188	-117.930038	51.990292	1.683818	
11.470		13.208727	34.957737	1373.293091	-120.217125	50.129124	1.733767	
11.480		12.391796	36.090767	1362.077881	-122.887505	47.983433	1.824278	
11.490		11.442986	36.289532	1355.423096	-125.325600	45.890755	1.779789	
11.500		11.193981	36.832947	1344.275269	-127.587875	43.931503	1.896772	
11.510		10.947761	38.880745	1335.541992	-131.251938	43.139530	1.957073	
11.520		10.147329	39.247704	1320.678467	-133.487991	41.882717	2.240219	
11.530		9.433858	39.907364	1317.004395	-136.193390	39.731602	2.202198	
11.540		10.572430	41.819775	1313.998413	-139.917496	40.129993	2.302300	
11.550		9.178183	42.896439	1314.942871	-142.801559	38.265663	2.370450	
11.560		8.941502	43.919182	1319.210449	-145.485168	37.208916	2.345601	
11.570		9.672554	45.385254	1310.757202	-148.087799	37.606873	2.352030	
11.580		8.331403	45.381924	1305.004150	-149.371933	36.465385	2.227263	
11.590		9.643297	46.810425	1301.293579	-151.894913	37.815372	2.150570	
11.600		9.613695	46.671307	1298.963135	-152.638000	38.122314	2.087963	
11.610		9.448296	47.781097	1310.355225	-154.111725	38.367477	2.094823	
11.620		11.326567	47.253109	1313.382446	-153.846649	40.963573	2.102863	
11.630		11.203039	47.865189	1304.397949	-153.973770	42.102055	2.291406	
11.640		12.463604	46.138466	1294.987793	-150.998672	44.818584	2.332734	
11.650		13.150598	46.471218	1294.644409	-149.798813	46.865635	2.273969	
11.660		13.422987	44.591267	1293.709351	-146.585922	49.434708	2.238019	
11.670		15.064281	44.729088	1303.828979	-145.647491	53.030693	2.259514	
11.680		15.378090	42.693016	1318.821411	-142.538818	54.641582	2.304973	
11.690		14.847067	43.840405	1328.856445	-142.192978	55.289631	2.240298	
11.700		16.824884	43.310543	1331.158081	-140.071426	58.220612	2.330369	
11.710		16.233711	42.726360	1324.977173	-138.076691	58.107384	2.235724	
11.720		16.815685	43.264729	1322.926514	-136.876297	59.145035	2.209516	
11.730		16.097031	41.084328	1311.520996	-132.716278	58.375957	2.055328	
11.740		16.223408	41.322029	1295.569092	-130.766418	58.081436	1.798093	
11.750		16.898890	39.264072	1290.037354	-127.193741	58.652290	1.823661	
11.760		15.682384	39.896744	1295.022095	-126.577621	56.773430	1.835889	
11.770		16.326132	39.082615	1298.283569	-124.105667	57.025497	1.903440	
11.780		15.654188	38.227245	1289.086304	-120.980507	55.865726	1.952811	
11.790		15.677747	37.653217	1269.362061	-117.957359	55.138592	1.921160	
11.800		15.266702	36.208393	1253.176514	-114.129250	53.672127	1.875849	
11.810		14.173221	36.244854	1238.416504	-111.924652	51.492386	1.593867	
11.820		14.322095	34.793362	1222.540771	-108.317741	50.475758	1.558488	
11.830		12.869284	34.870659	1210.880371	-106.386238	47.140362	1.437171	
11.840		11.781712	34.666195	1204.892456	-104.430298	43.738213	1.353276	
11.850		9.382426	34.330242	1197.317139	-102.496086	38.435398	1.207653	
11.860		8.881974	34.089802	1191.723389	-100.905785	34.860271	1.123888	
11.870		6.572376	32.937111	1183.717896	-98.480988	28.650484	1.041293	
11.880		5.219795	32.950542	1162.237549	-97.217117	23.283047	1.055542	
11.890		3.274981	31.817924	1144.570801	-94.665939	17.499678	0.934725	
11.900		2.568421	32.251816	1125.955078	-93.788467	13.572628	0.711397	
11.910		0.816665	31.236717	1125.248901	-91.153687	8.921621	0.643854	
11.920		-0.363504	31.457497	1131.800293	-89.296898	4.841094	0.489449	
11.930		-0.601908	29.811144	1135.918701	-85.149025	2.489513	0.446314	
11.940		-1.566738	29.063562	1136.819946	-82.436661	-0.557638	0.428785	
11.950		-1.108889	28.904413	1128.800659	-80.444252	-1.565930	0.407806	
11.960		-2.235021	27.745632	1117.644775	-77.404686	-4.130856	0.407648	
11.970		-2.102430	27.505655	1115.012451	-75.578720	-5.298205	0.441938	
11.980		-2.417603	26.996847	1115.226807	-73.602867	-6.728043	0.489013	
11.990		-2.332535	26.950005	1126.363525	-72.394791	-7.777994	0.319147	
12.000		-3.039980	26.278555	1142.987183	-70.458855	-9.927871	0.204303	
12.010		-3.201718	25.838163	1156.726929	-68.650597	-11.452487	0.126216	
12.020		-3.488119	24.535366	1171.578003	-65.518456	-13.284071	0.053553	
12.030		-4.482870	24.190405	1179.759888	-63.466171	-15.343746	0.085786	
12.040		-3.896451	23.088223	1192.079468	-60.646866	-15.524203	0.085362	
12.050		-4.054218	22.644899	1209.103394	-58.391739	-16.068275	0.147656	
12.060		-3.476476	21.637009	1227.739746	-55.379955	-15.577088	0.070084	
12.070		-4.585510	21.240896	1246.448730	-53.158539	-16.630882	0.053044	
12.080		-3.559505	20.502316	1258.126709	-50.987869	-14.615699	0.055976	
12.090		-2.510835	19.837143	1269.482788	-48.868717	-12.696285	0.007223	
12.100		-1.206272	18.727791	1275.042480	-46.191895	-10.246725	-0.029612	
12.110		-0.779983	18.376076	1279.293091	-44.607876	-8.394972	-0.011057	
12.120		0.815636	18.072552	1285.653320	-43.816288	-5.250014	0.099755	
12.130		0.872509	18.233217	1299.100220	-43.744339	-4.578334	0.127390	
12.140		0.551839	17.685436	1316.100830	-42.451073	-4.815619	0.196534	
12.150		0.417509	17.732052	1330.603760	-41.739048	-5.543663	0.272254	
12.160		0.657626	17.113113	1328.874023	-40.685764	-6.023143	0.242837	
12.170		0.328063	18.074095	1321.427124	-41.444084	-7.479773	0.194203	
12.180		-0.890568	17.101862	1306.245605	-40.019016	-9.987227	0.163519	
12.190		0.158255	18.480087	1299.896240	-41.009010	-9.512911	0.139154	
12.200		-0.946891	17.469343	1302.666504	-39.068653	-11.463629	0.074951	
12.210		-0.996946	18.237072	1311.129639	-39.749107	-12.288659	-0.061476	
12.220		-2.029487	16.873093	1302.827881	-37.810074	-14.196830	-0.223996	
12.230		-1.758529	17.771444	1285.046997	-38.812046	-14.205332	-0.246157	
12.240		-1.668472	17.131994	1263.786377	-38.022823	-14.680642	-0.227582	
12.250		-2.484046	17.058794	1251.190918	-37.871792	-15.528368	-0.224004	
12.260		-1.063609	17.229750	1242.610718	-37.752625	-13.202056	-0.206489	
12.270		-2.198314	17.464741	1226.284912	-37.830845	-13.752063	-0.212910	
12.280		-0.794548	17.687923	1208.287964	-38.065067	-11.030567	-0.122625	
12.290		-1.867920	18.104967	1193.641113	-38.832073	-11.471339	-0.121637	
12.300		-1.088974	17.987417	1183.103882	-38.956074	-9.481516	-0.094437	
12.310		-1.221065	18.452936	1171.677124	-39.991615	-8.565660	-0.118445	
12.320		-0.877839	17.936464	1156.098389	-39.982552	-7.234513	-0.119992	
12.330		-1.058456	18.729288	1138.445679	-41.244987	-7.010095	-0.146752	
12.340		-2.431847	18.331919	1123.312256	-41.100437	-8.577393	-0.163453	
12.350		-1.894103	18.873283	1116.800903	-41.767204	-8.074566	-0.106689	
12.360		-3.663711	19.212229	1110.344482	-42.321461	-10.082458	-0.072866	
12.370		-3.338553	18.845062	1099.302979	-42.250080	-9.882080	-0.045678	
12.380		-4.922468	18.394253	1073.888916	-42.021637	-11.680573	-0.111359	
12.390		-3.315362	18.929335	1063.845581	-42.866436	-9.021349	0.012057	
12.400		-3.678895	18.374128	1065.927246	-42.798496	-8.364648	0.116219	
12.410		-2.808925	18.388571	1076.289307	-43.260445	-6.627425	0.133391	
12.420		-2.684374	18.808846	1078.172119	-44.676739	-5.516942	0.231564	
12.430		-1.674575	19.620293	1074.400513	-46.694260	-3.403974	0.351541	
12.440		-1.683217	19.754034	1077.328735	-47.997646	-2.566563	0.389350	
12.450		-0.881572	20.713266	1080.964355	-50.412586	-0.532218	0.427865	
12.460		0.013178	21.260183	1075.142578	-51.986206	1.870373	0.429099	
12.470		0.716453	20.400114	1064.006592	-51.409805	4.092625	0.361036	
12.480		1.802661	20.620298	1060.861694	-52.215126	6.770636	0.379613	
12.490		1.891930	20.364267	1072.566772	-52.668137	8.000196	0.277048	
12.500		2.416448	20.495214	1100.024048	-53.921070	9.828171	0.362516	
12.510		2.649970	21.416626	1121.951172	-55.948742	11.168528	0.425513	
12.520		3.194488	21.088305	1132.244629	-56.881912	13.190389	0.598362	
12.530		3.884055	22.924568	1130.353516	-60.180801	15.123251	0.695696	
12.540		3.839545	22.343548	1125.479858	-60.905365	16.043913	0.770057	
12.550		4.475945	23.494902	1130.671875	-63.798393	17.992670	0.831346	
12.560		4.876056	23.409842	1140.697144	-65.536095	19.688725	0.959285	
12.570		5.409727	24.443876	1156.071289	-68.854012	21.604019	0.952267	
12.580		6.115047	25.674881	1167.003418	-72.457253	23.936493	1.019294	
12.590		6.867825	26.620167	1174.507324	-75.977844	26.437725	1.086549	
12.600		8.054314	28.060165	1183.965698	-79.626007	29.346577	1.180280	
12.610		8.635041	27.730257	1189.925781	-81.119957	31.369104	1.271650	
12.620		8.394812	28.666039	1188.657227	-83.797966	31.936993	1.298671	
12.630		10.030960	28.906462	1184.991089	-85.640778	34.459591	1.440915	
12.640		8.949643	29.967976	1190.917480	-88.577705	33.270477	1.558845	
12.650		8.395638	30.723621	1202.963379	-91.079247	32.062077	1.661559	
12.660		8.659978	31.087988	1219.938110	-92.605133	31.857313	1.814095	
12.670		8.033180	31.279984	1230.195679	-93.432693	30.395542	1.851450	
12.680		8.254637	31.308088	1241.368164	-93.701248	29.861895	1.906586	
12.690		7.858418	30.431368	1243.955200	-92.560417	28.575884	1.920772	
12.700		7.654698	30.469547	1242.502197	-92.229858	27.291721	1.788282	
12.710		7.518272	29.022158	1237.892456	-90.286934	26.057762	1.757743	
12.720		6.506039	29.838413	1234.274902	-90.852272	23.603712	1.590198	
12.730		6.948520	28.956446	1240.231689	-89.271881	23.353609	1.472313	
12.740		6.284113	29.554310	1244.376343	-89.263580	21.919044	1.460985	
12.750		6.751975	28.458326	1249.427002	-86.876358	22.101271	1.505086	
12.760		6.207320	28.250694	1252.571167	-85.278694	21.217295	1.539934	
12.770		6.307303	27.025209	1256.092163	-82.592155	21.201756	1.584181	
12.780		6.541270	26.167528	1259.211304	-80.338669	21.439386	1.593230	
12.790		6.131487	25.646400	1256.294312	-78.597977	21.215916	1.623634	
12.800		7.048412	25.575512	1253.715576	-77.447823	22.989141	1.694819	
12.810		7.322630	26.137928	1249.377075	-77.146919	24.064682	1.668911	
12.820		7.841410	24.970070	1243.192139	-74.607857	25.711203	1.559816	
12.830		8.184519	25.057409	1222.267700	-73.354469	27.223938	1.464982	
12.840		8.657384	23.780399	1206.077271	-70.820450	29.008736	1.390224	
12.850		9.384342	24.037477	1188.957397	-70.272621	30.896273	1.376249	
12.860		9.313745	23.878160	1182.058838	-69.822083	32.094006	1.315551	
12.870		10.509647	25.146406	1179.456543	-71.207611	35.139172	1.401906	
12.880		10.660130	25.459724	1175.404663	-71.593071	37.188011	1.412563	
12.890		12.560942	26.038157	1163.913818	-72.014336	41.419682	1.338719	
12.900		13.251528	25.470201	1142.028931	-70.969231	44.459797	1.325935	
12.910		14.094109	25.521181	1112.267456	-70.280464	47.421196	1.222905	
12.920		15.009020	25.097843	1082.998047	-69.101158	50.649643	1.225947	
12.930		16.548479	24.847179	1061.637329	-68.087891	54.736668	1.187471	
12.940		17.407822	25.197470	1049.917236	-67.660408	57.881512	1.115467	
12.950		18.190397	24.996548	1047.096191	-66.703995	61.196232	1.061500	
12.960		19.420933	24.955549	1038.581177	-65.675484	64.959190	0.930819	
12.970		20.356936	24.000513	1023.033875	-63.336086	68.298958	0.778893	
12.980		20.922493	23.967443	1001.211182	-61.894737	70.949829	0.660286	
12.990		21.695797	22.813694	972.967102	-59.274120	73.785919	0.558157	
13.000		22.945087	22.786404	944.271851	-57.808899	77.117867	0.497073	
13.010		23.388172	22.074646	919.623779	-55.210892	79.790245	0.493511	
13.020		24.207834	21.588926	903.794617	-52.715885	82.653496	0.448643	
13.030		24.815441	21.061329	893.949341	-49.901196	85.123772	0.340365	
13.040		25.097876	18.795828	881.322998	-44.949623	87.036018	0.294682	
13.050		25.416765	17.937855	859.299683	-41.385048	88.025436	0.230206	
13.060		25.331224	16.115677	838.362610	-36.624378	88.547173	0.132119	
13.070		25.170017	15.024207	817.613586	-32.763649	88.892479	0.058484	
13.080		25.555565	13.630571	801.940063	-28.766396	89.701782	-0.030412	
13.090		24.583914	12.863910	785.803284	-25.739664	89.191948	-0.115387	
13.100		24.982090	11.913124	767.923218	-22.642696	89.780823	-0.120339	
13.110		24.717602	10.434634	747.484924	-18.857649	89.565132	-0.239600	
13.120		24.232595	9.784870	719.268555	-16.297419	88.596642	-0.263163	
13.130		24.972218	8.029396	698.473877	-12.425778	88.901848	-0.354273	
13.140		23.400166	6.799774	678.878601	-9.060001	87.043648	-0.467386	
13.150		23.631680	6.372084	668.698486	-6.778636	87.053696	-0.546477	
13.160		22.980167	5.221536	656.656494	-4.348067	86.127968	-0.629180	
13.170		23.202669	5.727571	649.899902	-4.017157	86.035912	-0.727185	
13.180		22.527351	4.481779	648.828613	-2.200250	85.295540	-0.773018	
13.190		22.000040	4.970356	642.408020	-2.651171	84.538239	-0.809580	
13.200		23.012917	4.850676	628.599609	-2.849560	84.912315	-0.786273	
13.210		21.498369	5.699897	606.826416	-4.197851	82.467033	-0.803878	
13.220		22.035189	5.632490	593.175415	-4.644267	82.134178	-0.834286	
13.230		21.326197	6.401755	590.333069	-6.234993	81.066765	-0.842688	
13.240		21.037457	6.490507	596.469788	-7.205352	80.621758	-0.905723	
13.250		21.142696	7.072338	609.388184	-8.697132	80.725578	-0.890891	
13.260		20.581654	7.135777	619.114624	-9.608747	80.060127	-0.884213	
13.270		21.242708	7.622359	628.168762	-11.048128	80.521873	-0.820931	
13.280		20.894651	7.838374	638.271118	-12.129345	80.269058	-0.746997	
13.290		21.627634	8.011703	651.914062	-13.057208	81.170387	-0.702040	
13.300		21.516150	8.613666	657.847900	-14.370785	81.233223	-0.604601	
13.310		22.043253	8.514150	659.397888	-14.888983	81.881134	-0.522154	
13.320		22.826521	9.252501	672.079773	-16.549049	83.208870	-0.367799	
13.330		22.857235	9.644831	692.668945	-17.753809	84.028763	-0.324623	
13.340		22.988405	9.184305	712.850769	-17.566914	84.729927	-0.266084	
13.350		23.313961	9.493603	739.938232	-18.227983	85.517242	-0.242223	
13.360		23.287399	8.878614	770.203796	-17.517233	85.762939	-0.181199	
13.370		23.355272	8.827065	801.759949	-17.241453	85.955231	-0.149748	
13.380		23.415558	8.406758	830.921936	-16.402294	86.036186	-0.147811	
13.390		23.246016	7.922663	856.653015	-15.480298	85.735657	-0.151558	
13.400		23.962091	7.957137	877.754578	-15.302770	86.142365	-0.084740	
13.410		23.283829	7.482772	896.032532	-14.454505	84.715363	-0.014680	
13.420		23.165777	7.215562	913.805786	-13.787313	83.735947	-0.003969	
13.430		22.844751	6.592399	933.025452	-12.816641	82.493454	0.023216	
13.440		22.917042	7.101858	953.720581	-13.448689	81.746384	0.035301	
13.450		22.763130	6.683399	970.347534	-13.175683	80.804459	0.080204	
13.460		22.038759	6.995053	986.898804	-13.536261	79.233353	0.168933	
13.470		22.397594	7.228902	1000.507324	-13.854864	78.703117	0.181746	
13.480		21.920221	7.352060	1013.648193	-14.599589	77.186157	0.174456	
13.490		21.272379	7.705071	1030.534912	-15.760263	75.166145	0.207694	
13.500		20.526152	8.135378	1048.785278	-16.962042	72.684990	0.193308	
13.510		20.486773	8.902099	1065.283447	-18.736563	71.100700	0.275611	
13.520		19.685545	8.775090	1075.235840	-19.527758	68.355606	0.280263	
13.530		18.514198	9.459317	1076.335938	-21.075718	64.629318	0.309157	
13.540		16.902830	9.438936	1066.514648	-21.680735	60.049362	0.351994	
13.550		15.943557	10.149203	1060.439575	-23.369221	55.890133	0.423160	
13.560		13.557997	10.624750	1062.102417	-24.492203	49.568932	0.477800	
13.570		11.604849	10.631590	1073.186768	-24.858891	43.661301	0.517273	
13.580		10.237617	11.044861	1080.735718	-25.454592	38.408497	0.564230	
13.590		8.389569	10.676178	1087.778198	-24.707275	32.782253	0.509901	
13.600		7.331055	10.785224	1089.907593	-24.040871	27.973423	0.416815	
13.610		5.515535	9.208008	1089.339966	-21.251242	22.611738	0.349080	
13.620		4.537714	9.283048	1089.530518	-20.189623	18.178543	0.244631	
13.630		2.783513	8.533412	1095.392212	-18.065619	12.904846	0.209510	
13.640		2.243198	8.815379	1100.664429	-17.151787	9.163102	0.198196	
13.650		0.410333	8.004938	1105.448730	-14.831821	3.870437	0.181761	
13.660		0.027276	7.741459	1109.957520	-13.111027	0.581547	0.100495	
13.670		-1.395655	7.157698	1112.274536	-11.201779	-3.439804	0.068283	
13.680		-1.712463	6.797040	1109.964722	-9.325459	-6.170879	-0.030829	
13.690		-3.018288	5.824075	1106.037720	-6.480617	-10.191274	-0.198200	
13.700		-4.235122	5.090967	1109.666870	-3.828999	-13.884858	-0.284015	
13.710		-4.907370	4.431620	1122.963013	-1.119536	-17.192724	-0.458695	
13.720		-6.453776	2.939720	1141.061523	2.330533	-21.406702	-0.527266	
13.730		-6.796968	3.101698	1156.497437	3.531133	-24.143110	-0.608992	
13.740		-8.540893	1.846714	1167.462524	6.420566	-28.714724	-0.665312	
13.750		-9.040748	2.273696	1172.302246	7.082247	-31.920357	-0.760580	
13.760		-10.668583	1.590327	1173.095215	8.589536	-36.330463	-0.766111	
13.770		-10.931709	2.063156	1177.729004	8.441140	-38.857140	-0.788414	
13.780		-12.503201	1.532131	1184.054565	9.351819	-42.560680	-0.817839	
13.790		-12.861073	1.727741	1196.469971	9.138436	-44.368313	-0.841568	
13.800		-12.937022	2.412102	1205.725098	8.368533	-45.233528	-0.878380	
13.810		-12.729846	1.412926	1217.628296	9.742340	-45.277908	-0.894651	
13.820		-12.266991	2.880860	1231.714111	8.133286	-44.713810	-0.948739	
13.830		-11.960932	1.652620	1245.758789	9.732686	-44.466805	-1.041613	
13.840		-12.082148	2.770567	1246.952515	8.569295	-44.952068	-1.121901	
13.850		-11.869075	2.010049	1241.812378	9.400146	-45.265339	-1.140684	
13.860		-12.297246	2.869438	1242.906494	8.445001	-46.493252	-1.216190	
13.870		-13.003553	2.361931	1257.594604	9.242661	-48.219711	-1.261531	
13.880		-13.396843	2.629577	1265.285767	9.332312	-49.783600	-1.264635	
13.890		-13.838113	2.061423	1270.776001	10.618281	-51.857010	-1.245948	
13.900		-14.568204	1.847358	1277.775635	11.532962	-54.499111	-1.313347	
13.910		-15.725190	1.629158	1286.785278	12.724009	-58.186977	-1.434203	
13.920		-16.579208	0.748613	1291.785034	14.739474	-61.724125	-1.517234	
13.930		-17.893166	0.941231	1295.391235	15.677045	-66.090630	-1.608981	
13.940		-19.612530	-0.114928	1302.187378	18.122440	-71.163300	-1.726609	
13.950		-21.069811	0.247816	1308.522339	18.757652	-76.115532	-1.816737	
13.960		-22.665855	-0.452961	1313.069702	20.327559	-81.095184	-1.857914	
13.970		-23.954323	0.011397	1316.456421	20.746168	-85.883232	-1.935227	
13.980		-26.283390	-1.218403	1318.930054	22.886030	-91.976364	-1.982350	
13.990		-27.451632	-0.841771	1315.715820	22.787413	-96.736771	-1.976222	
14.000		-29.555405	-1.750011	1312.355225	24.387407	-102.405556	-2.054330	
14.010		-31.051912	-1.317692	1309.927490	24.036867	-107.232384	-2.088868	
14.020		-32.806744	-1.438735	1317.759888	23.997349	-112.577629	-2.124012	
14.030		-35.144157	-0.801556	1324.541016	23.435734	-118.750565	-2.175033	
14.040		-36.751896	-1.549161	1326.164429	24.343426	-124.242165	-2.205920	
14.050		-38.680851	-1.703514	1324.502197	24.523262	-130.379196	-2.300607	
14.060		-40.923527	-1.714858	1322.600586	24.662392	-136.803070	-2.335601	
14.070		-43.263439	-1.392833	1323.638794	23.941368	-143.115417	-2.352454	
14.080		-45.580383	-2.162198	1318.937500	24.473059	-149.038651	-2.394015	
14.090		-47.793015	-1.367181	1317.034424	23.236490	-154.991074	-2.475908	
14.100		-50.032207	-2.038271	1321.495361	23.642174	-161.065308	-2.504660	
14.110		-51.986282	-1.847520	1328.571167	23.147388	-166.552032	-2.592717	
14.120		-52.938732	-1.614629	1327.372559	22.741339	-170.542389	-2.569339	
14.130		-54.889553	-2.646463	1328.479858	23.745510	-174.670166	-2.623183	
14.140		-55.746483	-1.938272	1329.456665	23.161951	-177.523071	-2.561692	
14.150		-56.333111	-2.966058	1332.670654	24.581890	-179.558655	-2.559556	
14.160		-57.294979	-2.127565	1337.484131	24.420660	-181.538986	-2.595414	
14.170		-57.183964	-3.757005	1341.034180	26.871492	-181.827271	-2.651736	
14.180		-57.005402	-3.701692	1339.199951	27.829805	-181.627121	-2.616518	
14.190		-56.448582	-4.217166	1337.874878	29.353960	-180.601456	-2.624022	
14.200		-55.896881	-4.332249	1334.203735	30.442612	-178.820862	-2.529517	
14.210		-54.578693	-4.712165	1337.231201	31.594450	-176.134155	-2.498936	
14.220		-53.398266	-4.632244	1341.336182	32.096996	-173.441238	-2.452711	
14.230		-53.316082	-4.536767	1344.135010	32.186417	-171.429108	-2.331224	
14.240		-51.653107	-4.096141	1351.074463	31.932365	-168.088364	-2.226883	
14.250		-51.561447	-4.475785	1353.948364	32.356659	-166.211258	-2.097495	
14.260		-50.286446	-4.237191	1350.146240	32.278835	-162.910706	-2.026943	
14.270		-49.411236	-3.536111	1340.574829	31.560610	-159.944656	-2.019659	
14.280		-49.399548	-3.906294	1328.414307	31.490145	-157.840515	-2.018984	
14.290		-48.286022	-2.964915	1314.902588	30.072372	-154.716293	-1.986047	
14.300		-47.714756	-3.285911	1302.143677	29.613085	-152.196075	-1.902659	
14.310		-46.882679	-2.271425	1290.902344	27.548895	-149.680695	-1.832792	
14.320		-46.566330	-2.241247	1287.222656	26.511795	-147.595291	-1.719846	
14.330		-46.143997	-1.627944	1278.747925	24.897573	-145.336090	-1.589702	
14.340		-44.922890	-1.005334	1268.353638	23.423777	-142.223221	-1.495478	
14.350		-44.446873	-1.142146	1255.631104	22.692442	-139.787064	-1.386728	
14.360		-44.391209	-0.631108	1245.967407	21.395195	-138.036346	-1.302293	
14.370		-42.968895	-0.001305	1235.105591	19.933081	-134.973236	-1.217960	
14.380		-42.615002	-0.315756	1225.252441	19.839157	-132.828186	-1.149894	
14.390		-41.854435	-0.552666	1210.470581	19.942190	-129.998428	-1.082736	
14.400		-40.926949	-0.566830	1189.152222	20.103455	-126.792542	-1.122621	
14.410		-40.156200	-1.191705	1167.885498	21.129414	-123.668419	-1.086051	
14.420		-38.500347	-0.937147	1147.492310	21.447336	-119.843140	-1.099756	
14.430		-38.014946	-1.424392	1132.956909	22.619570	-117.599861	-1.109665	
14.440		-37.145061	-1.293042	1123.127930	23.240395	-115.438736	-1.049660	
14.450		-37.002209	-2.200353	1118.454102	25.261517	-114.443794	-1.018298	
14.460		-37.354378	-2.412961	1112.268555	26.410313	-114.230522	-0.964989	
14.470		-37.450275	-3.063828	1104.439331	27.931810	-113.782097	-0.954227	
14.480		-37.547779	-3.837318	1098.577026	29.678699	-113.305267	-0.963815	
14.490		-37.744179	-4.097140	1087.410400	30.597250	-112.548798	-0.948124	
14.500		-36.774117	-4.598649	1076.075684	31.482260	-110.257439	-0.960088	
14.510		-36.631264	-4.279360	1060.347046	31.083715	-108.265335	-0.937868	
14.520		-35.590797	-5.199956	1051.085938	31.867979	-105.009224	-0.897142	
14.530		-34.257790	-3.985333	1045.037842	30.078779	-101.185196	-0.868637	
14.540		-33.113995	-4.111359	1036.300049	29.466524	-96.965683	-0.806817	
14.550		-31.205437	-3.765619	1025.830688	28.109509	-91.457939	-0.682793	
14.560		-29.476606	-2.964452	1015.917908	26.167999	-85.599823	-0.558123	
14.570		-27.060339	-3.316519	1007.238525	25.332470	-78.501831	-0.425182	
14.580		-24.695377	-1.926825	1005.405762	22.463020	-71.023979	-0.294458	
14.590		-21.182615	-1.481512	1002.123291	20.371033	-61.282467	-0.169820	
14.600		-18.882399	-0.494279	997.539734	17.093220	-52.388039	0.018731	
14.610		-14.654424	0.508442	991.218567	13.735857	-40.928288	0.136060	
14.620		-11.921645	1.352695	985.264709	10.580432	-31.179790	0.247305	
14.630		-8.235525	2.321048	977.526184	7.104336	-20.327446	0.333273	
14.640		-4.977911	3.121363	974.135376	4.086514	-10.081739	0.430017	
14.650		-2.783393	3.671524	973.756775	1.609927	-1.608743	0.444583	
14.660		0.486633	4.781775	975.703003	-1.323362	7.930533	0.417392	
14.670		2.756569	5.190558	977.708801	-3.362042	15.933710	0.389929	
14.680		4.716330	6.186407	974.491699	-6.065899	23.192371	0.269064	
14.690		7.074021	5.983355	973.819580	-7.133192	30.478504	0.207336	
14.700		8.160417	6.877514	967.088745	-9.407725	36.040524	0.144237	
14.710		11.033561	6.642229	959.881226	-10.321936	43.879997	0.136685	
14.720		12.220249	7.074955	955.783691	-12.054051	49.945366	0.130884	
14.730		14.832532	7.395362	953.619324	-13.435310	57.565872	0.122881	
14.740		16.413658	7.648063	953.719421	-14.872198	63.893074	0.207932	
14.750		19.095774	8.520880	952.844849	-16.952553	70.704552	0.228325	
14.760		20.787291	8.789184	950.705872	-18.258410	76.182976	0.283233	
14.770		21.653204	8.729847	947.972778	-18.783558	80.360405	0.269223	
14.780		23.798954	8.791001	943.763000	-19.529686	85.365257	0.199443	
14.790		24.320156	8.761473	936.886292	-20.005058	88.160149	0.140595	
14.800		25.118656	8.122114	934.653442	-19.768488	90.881615	0.062872	
14.810		25.537451	8.961435	927.491760	-21.087465	92.592934	-0.029526	
14.820		26.066589	8.718164	919.449341	-21.485756	94.018684	-0.021436	
14.830		26.034357	9.688172	910.722961	-23.608397	94.408638	0.029980	
14.840		25.721334	9.662024	903.490234	-24.763159	93.961929	0.083313	
14.850		24.908957	10.619970	891.869995	-26.814993	92.564651	0.117960	
14.860		24.780159	10.215019	886.650024	-27.236330	91.804092	0.147950	
14.870		24.071703	11.398962	887.209961	-29.437000	90.307449	0.211491	
14.880		22.790621	10.741984	888.087524	-29.537134	88.082741	0.196146	
14.890		23.077005	11.386290	889.889587	-31.166313	87.312065	0.199979	
14.900		21.697506	11.495573	889.491577	-32.183708	84.820518	0.105283	
14.910		21.449020	12.008205	883.830811	-33.568703	83.348297	0.040457	
14.920		21.019699	12.446764	880.166382	-35.183445	81.985626	0.025794	
14.930		20.339962	13.104608	873.276978	-37.256710	80.420631	-0.004965	
14.940		21.152563	13.863905	873.939514	-39.545406	80.827461	0.050474	
14.950		20.948586	14.611229	876.879211	-41.781723	80.691704	0.075508	
14.960		21.658169	15.182160	883.924744	-43.652363	81.714005	0.135659	
14.970		21.731230	15.551103	895.268188	-45.311192	82.358459	0.155340	
14.980		22.413830	16.009691	901.989258	-46.998554	83.447983	0.235141	
14.990		22.316536	16.470406	903.302673	-48.529762	83.534866	0.269047	
15.000		22.601557	16.739372	906.359253	-49.675304	84.009140	0.331981	
15.010		22.771599	17.043669	908.128906	-50.665413	84.293015	0.368281	
15.020		22.944468	17.233215	915.374329	-51.102345	84.596245	0.332194	
15.030		22.926418	16.790695	929.863098	-50.956940	84.998093	0.327351	
15.040		23.534246	17.455513	950.289917	-51.787754	85.997871	0.356260	
15.050		23.134720	16.629642	969.245422	-51.133503	86.041733	0.319999	
15.060		23.784414	17.475929	983.498718	-52.186306	86.903374	0.351769	
15.070		23.538595	17.206366	996.804626	-52.160801	86.994156	0.352464	
15.080		24.084452	17.422249	1006.580872	-52.363686	87.792725	0.369363	
15.090		24.577448	17.116688	1013.244385	-51.621651	88.796227	0.390128	
15.100		24.940250	16.793123	1021.395508	-50.778973	89.928032	0.402027	
15.110		25.883938	16.541475	1031.319458	-49.890842	92.000069	0.422403	
15.120		26.372534	16.398031	1040.741699	-49.254185	93.552345	0.441624	
15.130		26.957767	15.779878	1051.058716	-47.969955	95.385696	0.457149	
15.140		27.355398	15.995872	1057.279053	-47.579636	96.410751	0.442797	
15.150		27.846329	15.403216	1061.522461	-46.159340	97.401283	0.422148	
15.160		28.708120	15.974342	1066.342407	-45.939178	98.500809	0.380624	
15.170		28.722946	15.704390	1071.944824	-44.992031	98.441650	0.339862	
15.180		28.462053	14.861589	1076.330444	-43.380581	97.783752	0.268655	
15.190		27.985456	15.274020	1074.700317	-43.289318	96.481346	0.232933	
15.200		27.623543	14.475433	1069.892334	-41.736645	94.873940	0.237055	
15.210		25.975168	14.502441	1064.556396	-41.393658	91.486908	0.180031	
15.220		25.942102	14.716212	1055.316406	-41.113911	89.714600	0.152742	
15.230		24.741096	13.986576	1048.131470	-39.903809	86.820328	0.067522	
15.240		24.460766	14.750441	1047.346680	-40.245995	85.183228	0.094413	
15.250		24.350063	13.772056	1048.911011	-38.467857	84.065071	0.033588	
15.260		23.338354	14.409657	1044.925293	-38.516216	82.072418	-0.008168	
15.270		23.736071	13.227660	1034.928223	-36.435444	82.017776	-0.027458	
15.280		22.506046	13.676939	1021.997253	-36.272434	80.134781	-0.092581	
15.290		22.885040	13.088852	1007.049316	-34.856789	80.071365	-0.089034	
15.300		21.941151	13.289243	988.026001	-34.463326	78.431755	-0.102976	
15.310		21.993448	12.753089	973.488342	-32.882744	77.807434	-0.116063	
15.320		22.136324	12.724494	967.991943	-31.910631	77.438347	-0.149253	
15.330		21.468927	11.820481	966.697693	-29.662354	76.245041	-0.223861	
15.340		21.613129	11.485941	968.934387	-27.813723	75.870575	-0.290667	
15.350		20.568836	10.803978	969.188293	-25.800377	74.184586	-0.344852	
15.360		20.385309	10.096828	965.094971	-23.559965	73.325706	-0.348927	
15.370		20.099447	9.784736	956.738953	-21.441154	72.381332	-0.389970	
15.380		19.563276	8.846240	944.975952	-18.622141	71.329582	-0.389931	
15.390		19.326225	8.192170	933.647583	-15.849347	70.841644	-0.447883	
15.400		19.644747	6.917203	925.287292	-12.418941	71.109406	-0.502750	
15.410		19.151628	6.396660	921.595032	-10.373571	70.587532	-0.588904	
15.420		19.179794	5.633218	919.813904	-8.064361	70.814224	-0.636673	
15.430		19.079378	5.495998	916.340332	-6.711194	71.069283	-0.675521	
15.440		19.907499	5.487497	915.272522	-5.908106	72.379669	-0.670086	
15.450		19.726360	5.386462	913.869202	-5.420949	72.879684	-0.666007	
15.460		20.689665	5.064585	910.308105	-4.578992	74.677490	-0.627973	
15.470		20.632944	5.174338	901.710632	-4.233581	75.071686	-0.630621	
15.480		21.057680	4.068172	900.050354	-2.623323	75.964104	-0.624298	
15.490		21.025560	4.528470	897.291321	-2.610413	75.912895	-0.614135	
15.500		20.219759	3.864484	896.898438	-1.685540	74.911354	-0.591673	
15.510		20.889589	4.648543	892.441895	-2.409570	75.143646	-0.559270	
15.520		20.376747	4.600838	891.314270	-2.278744	74.260735	-0.514253	
15.530		20.172562	4.720991	891.195068	-2.153604	73.663048	-0.534674	
15.540		20.415522	4.786149	892.387451	-1.946381	73.609375	-0.523720	
15.550		20.004490	4.240642	894.014038	-0.930997	72.892509	-0.579771	
15.560		20.239981	4.487542	893.468079	-0.887515	72.709213	-0.587518	
15.570		19.853954	4.087388	889.130798	-0.373323	71.881653	-0.610249	
15.580		19.967516	4.792361	886.002991	-1.226870	71.535385	-0.623691	
15.590		19.718828	4.697122	883.705139	-1.198196	70.918541	-0.593354	
15.600		19.652361	4.529109	883.299866	-0.832416	70.486862	-0.572571	
15.610		19.743544	4.431933	888.450256	-0.386061	70.219971	-0.517391	
15.620		19.201801	4.349277	895.197876	0.207585	69.173431	-0.508253	
15.630		19.085474	3.743680	903.272095	1.392868	68.543930	-0.452675	
15.640		18.941509	3.863800	912.524475	1.771952	67.792267	-0.439558	
15.650		18.114243	3.424806	918.229614	2.954631	66.043983	-0.402586	
15.660		17.972427	3.130894	920.184937	3.947716	65.029152	-0.367680	
15.670		17.870382	3.616157	918.703979	4.021257	63.887611	-0.312935	
15.680		17.482002	2.967263	917.121643	5.400118	62.408482	-0.325816	
15.690		16.958820	2.841845	917.020691	6.210649	60.747478	-0.343849	
15.700		16.339067	1.971156	922.056824	7.831769	58.980255	-0.356219	
15.710		16.319519	2.364860	930.236755	7.607131	57.692005	-0.390489	
15.720		15.014991	1.761111	943.210266	8.270394	55.136547	-0.373229	
15.730		14.866623	2.231479	955.866699	7.347168	54.016159	-0.349132	
15.740		14.821141	2.605911	962.114990	6.353304	53.106659	-0.300343	
15.750		14.570392	2.651429	970.212891	5.901984	52.289528	-0.222724	
15.760		14.554003	2.977410	971.021912	5.475100	51.717777	-0.169054	
15.770		13.891418	2.413522	972.629761	6.221159	50.280067	-0.176108	
15.780		14.199550	2.222178	973.237732	6.689346	49.781895	-0.163313	
15.790		13.121781	2.192516	978.944824	6.972873	47.473553	-0.120311	
15.800		13.097774	1.981010	985.083435	7.197203	46.288925	-0.085010	
15.810		12.442570	2.447624	992.175842	6.413557	44.315105	-0.015724	
15.820		12.170593	2.836946	999.742004	5.590842	42.799210	0.011496	
15.830		11.615701	2.956804	1006.627258	5.029205	41.142815	0.053931	
15.840		11.556043	3.419534	1016.125366	4.058628	40.052383	0.021286	
15.850		10.892950	3.035937	1024.273560	4.078572	38.438171	0.016538	
15.860		10.701257	3.534467	1025.772705	2.835723	37.430416	-0.021218	
15.870		10.369282	3.751917	1027.396606	1.845916	36.316002	0.002484	
15.880		10.148712	4.274751	1030.797852	0.596959	35.539448	0.027758	
15.890		10.005151	4.332133	1037.239746	0.004449	34.899097	0.030231	
15.900		9.332118	5.001655	1042.159912	-1.150849	33.644497	0.025147	
15.910		10.050222	4.762105	1048.016113	-1.159004	33.985554	0.039917	
15.920		9.076658	5.072589	1054.980103	-1.722689	32.235069	0.007312	
15.930		9.370416	4.731447	1060.648682	-1.571264	31.988333	-0.015950	
15.940		8.683837	5.173964	1063.701538	-2.547687	30.552792	0.009970	
15.950		8.662595	5.658178	1067.627441	-3.777770	29.802977	0.023931	
15.960		8.347386	5.947214	1068.325317	-4.991873	28.525318	0.041752	
15.970		7.512685	6.278022	1068.561279	-6.393807	26.599115	0.073247	
15.980		7.578181	6.594913	1073.786133	-7.606948	25.538490	0.048588	
15.990		6.434584	6.879034	1080.145142	-8.698086	22.921869	0.036151	
16.000		5.840253	6.729889	1088.777466	-9.061339	20.729649	0.010657	
16.010		4.616098	7.296441	1092.898315	-10.174952	17.818520	0.016619	
16.020		4.280268	6.886043	1097.898193	-10.254697	15.970362	0.021050	
16.030		3.179142	8.249398	1101.564087	-12.496910	13.331858	0.045814	
16.040		2.880429	7.656283	1106.877197	-12.364853	11.812133	0.054559	
16.050		2.266604	8.458070	1111.993530	-13.733940	10.016740	0.080370	
16.060		1.957287	8.239559	1115.352173	-13.829279	8.474676	0.066432	
16.070		1.536950	8.120259	1115.210571	-14.090378	6.905784	0.065947	
16.080		0.877044	8.236319	1116.271973	-15.014124	5.009061	0.069706	
16.090		0.679582	8.743347	1119.669678	-16.540340	3.618202	0.061075	
16.100		-0.038776	9.138298	1123.272461	-18.062376	1.535074	0.071115	
16.110		-0.538763	9.572099	1126.753052	-19.614525	-0.140320	0.060977	
16.120		-1.049851	10.111728	1134.117920	-21.255360	-1.623404	0.037481	
16.130		-1.465282	9.928338	1142.295044	-21.874699	-2.775936	0.018681	
16.140		-1.787236	10.381348	1148.235352	-23.127470	-3.674246	0.000663	
16.150		-1.795846	9.945394	1151.716553	-23.153566	-4.041995	-0.011945	
16.160		-1.802971	10.244158	1154.504761	-23.945372	-4.363119	-0.036344	
16.170		-2.038986	10.317499	1155.761719	-24.343403	-4.866678	-0.030196	
16.180		-2.175007	10.493930	1157.695068	-25.058487	-5.166029	0.007139	
16.190		-2.237790	10.674369	1160.075684	-25.852491	-5.452950	0.003512	
16.200		-2.457452	11.005504	1165.309570	-26.774910	-5.950411	-0.014154	
16.210		-2.641200	11.027870	1170.540405	-27.334703	-6.337573	-0.005869	
16.220		-2.485195	11.039062	1174.919922	-27.855930	-6.418879	-0.004010	
16.230		-2.842345	11.275896	1180.636353	-28.686764	-6.998945	-0.003776	
16.240		-2.634897	11.310941	1183.134521	-29.354755	-6.746937	-0.010296	
16.250		-2.724734	11.774089	1187.486694	-30.517160	-6.715981	0.013937	
16.260		-2.257686	11.779509	1189.759644	-31.084442	-5.827777	0.019928	
16.270		-2.211046	12.314426	1192.317871	-32.073215	-5.375197	0.032459	
16.280		-1.389143	12.183209	1194.119873	-32.125736	-3.706713	0.045767	
16.290		-1.102576	12.271308	1198.415771	-32.214329	-2.554078	0.057497	
16.300		-0.471121	12.009518	1202.812256	-31.895636	-0.984781	0.054753	
16.310		0.045863	12.176581	1203.090820	-32.101295	0.681330	0.084271	
16.320		0.688215	12.406373	1201.375977	-32.368694	2.414981	0.111655	
16.330		0.963767	12.535198	1199.739502	-32.588295	3.717318	0.147146	
16.340		1.404875	12.621435	1193.211670	-32.752388	5.244020	0.164400	
16.350		2.117853	12.223181	1188.576538	-32.221935	7.102050	0.161671	
16.360		2.385529	12.593383	1188.924805	-32.622742	8.416397	0.142639	
16.370		2.707152	12.065876	1190.521973	-32.146137	9.714384	0.127926	
16.380		3.189216	12.597129	1191.067139	-32.863533	11.081015	0.140011	
16.390		3.294037	12.193539	1189.335083	-32.298553	11.816372	0.124628	
16.400		3.344390	12.540314	1184.335571	-32.526169	12.294253	0.123404	
16.410		3.383311	12.054053	1178.468750	-31.567955	12.703209	0.115615	
16.420		3.222055	12.267806	1169.809814	-31.116333	12.749262	0.102877	
16.430		3.199016	11.287010	1164.422119	-29.148972	12.940315	0.115955	
16.440		3.210948	11.598408	1157.022583	-28.741755	13.144506	0.124143	
16.450		3.077193	10.797138	1148.968872	-27.169992	13.249610	0.137219	
16.460		3.131127	11.079678	1141.015503	-27.035143	13.536674	0.177071	
16.470		3.031000	10.963762	1131.842163	-26.607765	13.593362	0.161722	
16.480		3.273657	10.823743	1120.093506	-26.205418	14.132311	0.195776	
16.490		3.272820	10.914293	1109.227539	-25.997711	14.355993	0.166032	
16.500		3.180240	10.927181	1102.218872	-25.588942	14.343874	0.158573	
16.510		3.173652	10.487214	1097.087524	-24.436852	14.367628	0.114603	
16.520		2.962499	9.929296	1092.446411	-22.769531	13.806315	0.073805	
16.530		2.372414	9.532759	1084.807495	-21.148909	12.580815	0.044987	
16.540		2.231919	8.786501	1076.568604	-19.083914	11.739681	0.060270	
16.550		1.453010	8.823490	1063.856201	-18.056982	10.141580	0.056203	
16.560		1.420031	8.000238	1052.284058	-15.925970	9.452065	0.060790	
16.570		0.785311	8.052800	1044.881470	-14.880461	8.125142	0.058187	
16.580		0.438922	6.995827	1040.504395	-12.489791	7.163866	0.038285	
16.590		0.130209	6.955677	1037.617554	-11.310677	6.268815	0.030713	
16.600		-0.282306	6.291988	1035.860596	-9.633139	5.174042	0.023279	
16.610		-0.550242	6.408805	1029.485474	-9.078142	4.311886	-0.022784	
16.620		-0.853392	5.762603	1023.785522	-7.656406	3.484196	-0.040493	
16.630		-1.096454	5.987750	1017.135620	-7.191247	2.895430	-0.047454	
16.640		-0.986791	5.653084	1012.633545	-6.219151	2.923837	-0.063764	
16.650		-0.853129	5.264169	1008.190247	-5.174070	3.208515	-0.065656	
16.660		-0.779826	5.229958	1009.398193	-4.486448	3.606423	-0.043325	
16.670		-0.427396	4.683860	1013.235168	-3.092458	4.370548	-0.029135	
16.680		-0.368370	4.845798	1015.170593	-2.605936	4.743079	0.014504	
16.690		-0.026776	4.403230	1011.824158	-1.382316	5.305232	0.058332	
16.700		-0.154895	4.484918	1008.169800	-0.791783	5.093998	0.113662	
16.710		-0.267176	4.138198	1004.164001	0.233013	4.693074	0.141099	
16.720		0.006457	4.094247	1002.616028	0.897702	4.718920	0.186607	
16.730		-0.581333	3.776435	1002.873047	1.868169	3.527671	0.190593	
16.740		-0.686806	3.617752	1007.208862	2.557849	2.790725	0.197644	
16.750		-1.005893	3.439502	1012.357239	3.116570	1.816362	0.176436	
16.760		-0.997367	3.370614	1017.310364	3.459291	1.240059	0.185099	
16.770		-1.108194	3.452113	1022.242615	3.589628	0.612176	0.200655	
16.780		-1.100285	3.519334	1027.778320	3.815693	0.279101	0.214394	
16.790		-0.786099	3.430299	1029.335693	4.271314	0.515977	0.235655	
16.800		-0.587130	3.455786	1033.059082	4.739423	0.672951	0.238499	
16.810		-0.585839	2.760753	1035.906250	6.263099	0.479260	0.221824	
16.820		-0.611651	2.779232	1038.825317	6.855422	0.194080	0.225297	
16.830		-0.345590	2.615849	1038.388550	7.495952	0.326869	0.222832	
16.840		-0.396966	2.594483	1038.325684	7.803638	0.129388	0.226485	
16.850		-0.254930	2.667503	1037.036865	7.768074	0.152889	0.224449	
16.860		-0.197451	2.757877	1037.754639	7.662355	0.059587	0.208765	
16.870		-0.255452	2.818415	1041.771606	7.507155	-0.098625	0.213488	
16.880		0.018099	3.027381	1049.253418	7.116246	-0.033221	0.184608	
16.890		-0.298531	2.856148	1055.011108	7.093439	-0.746859	0.181724	
16.900		-0.456756	2.896055	1059.614136	6.891529	-1.307395	0.160080	
16.910		-0.950864	2.701326	1061.100464	6.989808	-2.277806	0.131945	
16.920		-0.883898	2.959440	1061.802856	6.501816	-2.581555	0.125703	
16.930		-1.242580	3.158931	1059.469238	6.111041	-3.248585	0.126900	
16.940		-1.494717	3.107040	1058.711670	6.121649	-3.744510	0.118398	
16.950		-1.462632	3.199458	1058.457275	5.949749	-3.643385	0.142684	
16.960		-1.323536	3.010143	1056.890381	6.141591	-3.346485	0.145412	
16.970		-1.425010	3.124677	1057.913818	5.812323	-3.252607	0.129001	
16.980		-1.062370	3.152394	1057.849487	5.487364	-2.620316	0.101752	
16.990		-1.013654	3.232332	1054.529663	4.975954	-2.103746	0.066921	
17.000		-0.631772	3.495293	1052.204956	4.096582	-1.139793	0.066336	
17.010		-0.776344	3.922304	1051.748657	2.898648	-0.970383	0.043250	
17.020		-0.667906	4.196332	1054.919312	1.910416	-0.621163	0.035583	
17.030		-0.840951	4.142829	1058.085938	1.533488	-0.733597	0.025729	
17.040		-0.888363	3.871099	1058.356689	1.562458	-0.802283	0.012821	
17.050		-0.981779	3.842819	1058.231079	1.424242	-0.815842	0.018669	
17.060		-0.979141	3.929341	1056.204956	1.102339	-0.579276	0.026357	
17.070		-0.805394	3.907893	1052.348877	1.036342	0.018046	0.015951	
17.080		-0.769608	3.835049	1050.144653	1.055938	0.479189	0.012809	
17.090		-0.750118	3.852802	1049.429321	0.967291	0.762090	-0.008435	
17.100		-0.691339	3.674701	1048.276489	1.081872	1.041144	-0.052460	
17.110		-0.613674	3.527641	1051.826416	0.994029	1.474074	-0.079640	
17.120		-0.542277	3.961564	1052.701782	0.083071	1.914379	-0.110624	
17.130		-0.463409	3.835270	1051.941650	-0.291966	2.484165	-0.114177	
17.140		-0.381107	4.208883	1047.021851	-1.402926	3.110137	-0.123558	
17.150		-0.040296	4.653854	1043.345825	-2.695529	4.152076	-0.132299	
17.160		0.033858	4.894548	1041.123657	-3.743409	4.988023	-0.135430	
17.170		0.593524	5.265175	1044.708252	-4.938457	6.491390	-0.136257	
17.180		0.821913	5.779832	1047.904297	-6.235936	7.641035	-0.139249	
17.190		1.156750	5.575004	1052.113159	-6.534678	8.797825	-0.135186	
17.200		1.157640	6.013936	1051.340088	-7.620979	9.367304	-0.146330	
17.210		1.393194	5.975515	1048.383789	-8.169421	10.134798	-0.112312	
17.220		1.252663	6.255445	1044.710449	-9.107226	10.311046	-0.115739	
17.230		1.313315	6.750800	1039.924561	-10.563196	10.575291	-0.108860	
17.240		1.295380	7.199013	1037.782593	-12.173483	10.734841	-0.078790	
17.250		1.351847	8.064929	1039.786621	-14.380798	11.025795	-0.058744	
17.260		1.557841	8.397091	1044.413452	-15.884334	11.448221	-0.031110	
17.270		1.323612	8.897516	1048.636841	-17.551140	11.298244	-0.031563	
17.280		1.418220	9.062008	1051.720459	-18.866158	11.460270	-0.017419	
17.290		1.292122	9.815977	1054.348633	-20.872759	11.332545	-0.025969	
17.300		1.711655	10.195114	1056.187744	-22.517441	11.847927	-0.017453	
17.310		1.343185	10.962880	1059.358887	-24.432207	11.413239	-0.047759	
17.320		1.618444	11.072080	1063.731445	-25.448488	11.651645	-0.034983	
17.330		1.198798	11.531076	1068.434814	-26.848063	11.072105	0.001165	
17.340		1.514086	11.595850	1071.318604	-27.703735	11.318807	0.040916	
17.350		1.333757	12.016912	1075.036743	-28.997583	10.851007	0.082468	
17.360		0.984500	11.958249	1077.427734	-29.746614	10.111073	0.109141	
17.370		1.254837	12.627418	1081.071167	-31.429766	10.127366	0.156231	
17.380		1.155165	12.751287	1088.943970	-32.558105	9.701727	0.192984	
17.390		1.302702	13.459021	1100.741455	-34.283897	9.477276	0.229896	
17.400		1.036209	13.533819	1112.602173	-35.199196	8.800725	0.240924	
17.410		1.378195	13.755603	1122.933350	-36.316738	8.925357	0.268171	
17.420		1.107661	13.943562	1131.758301	-37.327690	8.304393	0.249528	
17.430		1.133208	13.936405	1139.200562	-38.026649	8.134541	0.278885	
17.440		1.147670	14.503592	1144.361816	-39.612057	8.139201	0.311215	
17.450		1.331099	14.683959	1149.729248	-40.669418	8.465401	0.362962	
17.460		1.562819	15.140319	1157.854248	-42.055813	8.918423	0.405388	
17.470		1.551519	15.463181	1169.129150	-43.335217	9.174767	0.449843	
17.480		2.083413	15.752255	1178.774536	-44.471252	10.084022	0.501592	
17.490		1.975389	15.747119	1187.517212	-45.163498	10.324956	0.567338	
17.500		2.478587	16.050940	1194.378418	-46.129833	11.293849	0.610147	
17.510		2.382954	16.023476	1199.945801	-46.880459	11.611260	0.677952	
17.520		2.956465	16.410641	1206.265015	-48.202141	12.782769	0.711533	
17.530		3.187015	16.799742	1214.537231	-49.658806	13.696034	0.749196	
17.540		3.626384	17.200914	1222.292114	-51.081940	14.901464	0.780047	
17.550		3.918182	17.463423	1228.549805	-52.312614	15.961028	0.791965	
17.560		4.359056	17.946484	1231.869995	-53.855221	17.226593	0.802846	
17.570		4.921667	18.101532	1235.058472	-54.919262	18.824968	0.813706	
17.580		5.247396	18.546974	1236.967285	-56.257160	20.249447	0.851097	
17.590		5.833858	18.803360	1235.882446	-57.277382	21.940681	0.867715	
17.600		6.024370	18.781017	1231.738647	-57.739952	23.173008	0.920847	
17.610		6.754872	19.106197	1229.487183	-58.413883	24.956823	0.943178	
17.620		6.723524	18.957378	1228.114136	-58.245659	25.779810	0.974806	
17.630		7.205811	18.939554	1229.009033	-58.058270	27.108475	0.986589	
17.640		7.364893	18.780416	1225.401001	-57.563126	28.016760	0.981420	
17.650		7.532744	18.373165	1220.225220	-56.789814	28.918528	0.973544	
17.660		7.873425	18.558613	1216.173828	-56.782169	30.008968	0.941914	
17.670		7.939338	18.266201	1210.281372	-56.265671	30.779766	0.919564	
17.680		8.462064	18.516352	1203.010986	-56.345276	32.107380	0.888565	
17.690		8.463947	18.437984	1192.700562	-56.027767	32.948605	0.872498	
17.700		8.788590	18.481962	1182.356079	-55.749496	34.117504	0.844654	
17.710		8.980340	18.138372	1171.776001	-54.928680	35.106056	0.797437	
17.720		9.164131	18.049286	1159.622925	-54.249989	36.051472	0.752634	
